Time (sec)	T1 (C)	T2 (C)	T3 (C)	T4 (C)	P1 (kPa)	P2 (kPa)	P3 (kPa)	P4 (kPa)	Fuel Flow  (L/hr)	RPM	Thrust (N)
80.731	41.519	41.131	66.709	41.595	0.016	0.102	0.130	0.024	0.007	-6.954	-0.784
80.931	41.514	41.140	66.855	41.901	0.016	0.098	0.133	0.022	0.006	-7.027	-0.636
81.131	41.509	41.031	66.229	41.654	0.016	0.106	0.127	0.020	0.007	-8.200	-1.267
81.332	41.551	41.085	67.070	41.693	0.016	0.096	0.131	0.021	0.007	-4.553	-0.368
81.533	41.514	41.050	67.041	41.452	0.016	0.102	0.138	0.022	0.007	-8.086	-1.327
81.733	41.512	41.127	66.989	41.825	0.016	0.101	0.139	0.023	0.007	-4.909	-0.422
81.933	41.557	40.943	66.791	41.255	0.016	0.091	0.135	0.022	0.007	-4.796	-0.921
82.133	41.506	41.088	66.787	41.131	0.016	0.104	0.136	0.022	0.007	-3.793	-0.258
82.333	41.431	41.029	67.043	41.837	0.016	0.106	0.145	0.023	0.007	-8.879	-1.135
82.533	41.439	41.098	67.091	41.670	0.016	0.109	0.138	0.023	0.007	-7.828	-1.048
82.733	41.503	40.940	67.074	41.491	0.016	0.098	0.140	0.023	0.007	-7.084	-1.300
82.933	41.468	41.068	67.145	41.117	0.016	0.095	0.124	0.022	0.007	-5.434	-0.614
83.133	41.523	40.981	67.451	41.431	0.016	0.092	0.130	0.022	0.007	-5.620	-1.250
83.335	41.493	41.133	67.256	41.804	0.016	0.093	0.140	0.023	0.007	-4.464	-0.176
83.535	41.441	41.004	67.215	41.204	0.016	0.104	0.137	0.023	0.007	-7.714	-1.135
83.734	41.403	41.081	67.133	41.692	0.016	0.098	0.142	0.022	0.007	-9.049	-1.196
83.934	41.415	41.038	67.092	41.660	0.016	0.108	0.150	0.022	0.007	-7.658	-0.505
84.135	41.434	40.966	67.241	41.999	0.016	0.098	0.141	0.023	0.007	-8.563	-1.558
84.334	41.459	41.093	67.235	41.620	0.016	0.103	0.131	0.023	0.007	-4.488	-0.258
84.534	41.468	41.054	66.808	41.206	0.016	0.094	0.137	0.024	0.007	-3.720	-0.483
84.736	41.457	40.989	66.814	41.950	0.016	0.092	0.130	0.023	0.007	-8.111	-1.442
84.935	41.384	41.050	66.908	41.144	0.016	0.094	0.146	0.022	0.007	-8.111	-1.311
85.135	41.450	40.969	67.055	42.142	0.016	0.098	0.136	0.022	0.007	-6.227	-1.481
85.336	41.403	40.983	66.971	42.340	0.016	0.101	0.137	0.022	0.007	-7.642	-1.267
85.537	41.480	41.076	66.447	41.505	0.016	0.102	0.127	0.021	0.007	-4.383	-0.740
85.738	41.411	41.047	66.827	41.657	0.016	0.105	0.142	0.021	0.007	-7.674	-0.910
85.938	41.477	41.120	67.315	41.891	0.016	0.107	0.144	0.021	0.007	-4.860	-0.417
86.138	41.393	41.022	66.892	42.128	0.016	0.096	0.136	0.022	0.007	-8.240	-1.086
86.338	41.406	41.097	66.890	41.971	0.016	0.098	0.136	0.021	0.007	-4.876	-0.576
86.538	41.382	41.052	67.072	41.672	0.016	0.101	0.133	0.021	0.007	-6.760	-0.686
86.739	41.429	41.024	67.107	41.234	0.016	0.097	0.132	0.023	0.007	-3.995	-0.422
86.939	41.408	40.913	66.968	40.916	0.016	0.114	0.138	0.022	0.007	-6.671	-1.404
87.140	41.319	40.899	66.811	41.470	0.016	0.110	0.146	0.022	0.007	-8.111	-1.371
87.339	41.366	41.036	67.097	41.470	0.016	0.106	0.140	0.022	0.007	-5.151	-0.225
87.540	41.359	41.057	66.453	41.548	0.016	0.091	0.139	0.022	0.007	-3.073	-0.346
87.739	41.342	41.058	66.678	41.935	0.016	0.111	0.127	0.020	0.007	-4.820	-0.439
87.939	41.385	41.057	66.909	41.775	0.016	0.108	0.127	0.022	0.007	-3.623	-0.373
88.139	41.426	40.918	66.526	41.189	0.016	0.106	0.127	0.022	0.007	-5.038	-1.124
88.339	41.428	40.923	66.676	41.635	0.016	0.107	0.131	0.021	0.007	-5.814	-1.305
88.539	41.392	40.998	66.943	41.103	0.016	0.103	0.125	0.021	0.007	-3.187	-0.598
88.739	41.391	41.047	66.886	41.712	0.016	0.102	0.125	0.021	0.008	-3.081	-0.669
88.939	41.393	40.890	66.412	41.260	0.016	0.091	0.135	0.021	0.007	-6.178	-1.563
89.139	41.408	40.961	66.010	41.783	0.016	0.109	0.134	0.022	0.007	-5.232	-1.015
89.339	41.297	41.074	67.019	42.157	0.016	0.106	0.141	0.020	0.007	-6.591	-0.976
89.539	41.330	40.919	66.727	41.829	0.016	0.101	0.146	0.023	0.007	-7.254	-1.519
89.739	41.268	40.935	67.085	41.929	0.016	0.107	0.138	0.021	0.007	-7.027	-1.338
89.939	41.358	40.874	66.614	41.642	0.016	0.091	0.131	0.022	0.007	-5.499	-1.360
90.139	41.423	40.966	67.074	41.645	0.016	0.094	0.133	0.023	0.007	-4.529	-0.954
90.341	41.355	41.001	67.384	42.097	0.016	0.111	0.129	0.022	0.007	-7.949	-1.190
90.540	41.341	40.950	66.632	41.918	0.016	0.112	0.133	0.023	0.007	-7.933	-1.393
90.741	41.329	41.004	66.453	42.034	0.016	0.112	0.141	0.023	0.007	-7.763	-1.207
90.941	41.335	41.039	66.610	41.629	0.016	0.095	0.135	0.023	0.007	-6.243	-0.735
91.141	41.398	40.972	66.671	41.211	0.016	0.103	0.139	0.022	0.008	-7.876	-1.026
91.341	41.325	40.979	66.966	42.086	0.016	0.104	0.134	0.023	0.007	-7.690	-1.212
91.542	41.304	41.061	66.760	41.651	0.016	0.109	0.140	0.022	0.007	-7.027	-0.916
91.741	41.366	40.893	66.227	41.225	0.016	0.103	0.125	0.023	0.007	-6.178	-1.250
91.941	41.316	40.935	66.609	41.539	0.016	0.104	0.132	0.023	0.008	-7.132	-1.607
92.141	41.410	40.962	66.463	41.602	0.016	0.097	0.137	0.021	0.008	-4.464	-0.762
92.341	41.233	40.951	66.654	41.165	0.016	0.103	0.130	0.023	0.007	-7.302	-1.113
92.542	41.300	40.938	66.613	41.899	0.016	0.109	0.137	0.022	0.007	-7.140	-1.426
92.743	41.306	40.889	66.995	41.306	0.016	0.098	0.151	0.023	0.007	-6.227	-1.442
92.943	41.401	40.998	66.342	41.412	0.016	0.105	0.138	0.021	0.008	-3.001	-0.636
93.143	41.328	40.880	66.705	41.321	0.016	0.100	0.149	0.023	0.008	-6.421	-1.459
93.343	41.353	40.942	66.268	41.441	0.016	0.102	0.134	0.023	0.008	-7.512	-1.514
93.544	41.287	41.034	66.720	41.553	0.016	0.113	0.133	0.022	0.007	-5.766	-0.768
93.743	41.289	41.013	66.556	41.933	0.016	0.102	0.144	0.023	0.007	-3.938	-0.614
93.944	41.367	40.897	66.958	42.217	0.016	0.094	0.138	0.021	0.007	-6.469	-1.355
94.143	41.363	40.888	66.627	40.951	0.016	0.101	0.128	0.024	0.007	-4.254	-1.283
94.344	41.314	41.012	66.433	41.457	0.016	0.096	0.120	0.022	0.007	-4.553	-0.351
94.543	41.253	40.989	66.604	41.319	0.016	0.097	0.138	0.024	0.007	-6.348	-0.861
94.743	41.353	40.898	66.683	41.072	0.016	0.096	0.134	0.024	0.007	-3.599	-1.250
94.944	41.357	40.884	66.970	40.728	0.016	0.094	0.127	0.023	0.007	-5.176	-1.037
95.144	41.224	40.912	66.566	42.128	0.016	0.096	0.142	0.024	0.007	-7.124	-1.278
95.344	41.305	40.968	66.473	41.196	0.016	0.107	0.131	0.023	0.007	-4.642	-0.609
95.544	41.315	40.820	66.066	41.534	0.016	0.100	0.136	0.022	0.007	-6.259	-1.733
95.744	41.244	40.906	66.820	41.733	0.016	0.098	0.138	0.024	0.007	-8.644	-1.481
95.944	41.276	40.975	66.516	41.619	0.016	0.094	0.127	0.023	0.007	-2.523	-0.389
96.144	41.310	40.836	66.687	41.454	0.016	0.102	0.127	0.025	0.008	-6.332	-1.366
96.345	41.270	40.966	67.039	41.607	0.016	0.112	0.133	0.022	0.007	-5.143	-0.614
96.544	41.391	40.947	66.622	41.645	0.016	0.103	0.122	0.023	0.008	-3.162	-0.587
96.745	41.293	40.977	66.632	41.651	0.016	0.107	0.127	0.022	0.007	-6.251	-1.239
96.944	41.315	40.918	66.452	41.244	0.016	0.099	0.128	0.022	0.007	-7.173	-1.009
97.145	41.384	41.024	67.237	41.592	0.016	0.099	0.132	0.022	0.007	-4.731	-0.570
97.345	41.433	40.881	66.606	41.763	0.016	0.113	0.138	0.023	0.007	-7.545	-1.678
97.546	41.450	40.851	66.558	41.888	0.016	0.110	0.130	0.023	0.007	-5.798	-1.623
97.746	41.367	40.876	66.886	41.626	0.016	0.103	0.137	0.022	0.007	-6.946	-1.673
97.947	41.431	40.925	66.173	41.038	0.016	0.105	0.124	0.022	0.008	-3.510	-0.883
98.147	41.428	40.893	66.110	41.731	0.016	0.100	0.135	0.022	0.007	-6.162	-1.678
98.348	41.323	40.908	66.596	41.994	0.016	0.104	0.132	0.023	0.007	-7.488	-0.938
98.548	41.470	40.918	66.639	41.836	0.016	0.105	0.125	0.022	0.007	-4.957	-0.614
98.748	41.344	40.909	66.349	41.666	0.016	0.126	0.135	0.024	0.007	-8.297	-1.152
98.948	41.484	40.897	66.783	41.259	0.016	0.100	0.139	0.022	0.007	-4.682	-1.229
99.148	41.403	40.984	66.271	41.383	0.016	0.116	0.125	0.024	0.007	-4.068	-0.625
99.348	41.449	40.872	66.418	41.298	0.016	0.116	0.134	0.023	0.007	-5.281	-1.514
99.549	41.439	40.880	66.304	41.949	0.016	0.094	0.134	0.023	0.007	-7.221	-1.541
99.749	41.454	40.905	66.181	41.575	0.016	0.113	0.140	0.023	0.007	-4.981	-0.729
99.948	41.400	40.839	66.119	41.413	0.016	0.116	0.132	0.022	0.007	-7.625	-1.503
100.148	41.459	40.841	66.459	41.545	0.016	0.112	0.135	0.023	0.007	-6.291	-1.409
100.348	41.425	40.852	66.270	41.369	0.016	0.102	0.131	0.025	0.008	-4.747	-1.141
100.548	41.419	40.884	66.081	41.691	0.016	0.107	0.133	0.022	0.007	-3.987	-0.719
100.748	41.356	40.855	66.228	41.244	0.016	0.110	0.146	0.023	0.007	-7.528	-1.234
100.948	41.407	40.795	66.329	41.227	0.016	0.105	0.123	0.022	0.008	-4.747	-1.278
101.148	41.404	40.893	66.379	41.421	0.016	0.108	0.141	0.022	0.008	-4.593	-0.927
101.349	41.326	40.959	66.757	41.793	0.016	0.113	0.136	0.022	0.007	-7.334	-0.395
101.548	41.341	40.930	66.197	41.649	0.016	0.118	0.150	0.023	0.007	-6.615	-0.740
101.748	41.367	40.869	66.117	41.219	0.016	0.108	0.135	0.022	0.007	-3.874	-0.806
101.949	41.271	40.880	66.233	41.403	0.016	0.113	0.141	0.021	0.007	-5.159	-0.729
102.148	41.371	40.863	66.410	41.470	0.016	0.110	0.135	0.021	0.007	-3.478	-0.762
102.348	41.276	40.812	66.591	41.666	0.016	0.115	0.146	0.023	0.007	-8.766	-1.508
102.548	41.324	40.928	66.403	41.567	0.016	0.113	0.128	0.023	0.007	-3.623	-0.664
102.748	41.313	40.925	66.329	41.260	0.016	0.103	0.135	0.022	0.007	-3.712	-0.631
102.949	41.383	40.920	66.298	41.553	0.016	0.112	0.134	0.023	0.007	-4.221	-0.784
103.151	41.308	40.902	66.010	41.819	0.016	0.113	0.134	0.022	0.007	-6.736	-1.508
103.350	41.279	40.910	66.586	41.629	0.016	0.106	0.140	0.022	0.007	-5.394	-0.658
103.551	41.401	40.815	66.651	41.279	0.016	0.104	0.134	0.023	0.007	-5.030	-1.442
103.751	41.336	40.944	66.703	41.723	0.016	0.117	0.140	0.023	0.007	-4.464	-0.444
103.950	41.338	40.777	65.912	41.632	0.016	0.102	0.138	0.023	0.008	-6.348	-1.579
104.150	41.269	40.924	66.307	40.946	0.016	0.107	0.149	0.021	0.007	-6.437	-0.954
104.350	41.322	40.961	66.329	41.379	0.016	0.106	0.135	0.023	0.007	-5.750	-0.335
104.552	41.364	40.930	66.881	41.515	0.016	0.112	0.140	0.021	0.007	-5.289	-0.658
104.752	41.366	40.915	66.485	41.487	0.016	0.098	0.135	0.024	0.008	-4.610	-0.894
104.952	41.350	40.813	66.520	41.454	0.016	0.108	0.140	0.023	0.007	-5.911	-1.673
105.152	41.351	40.932	66.161	41.388	0.016	0.095	0.145	0.024	0.007	-4.537	-0.751
105.353	41.288	40.775	66.311	41.278	0.016	0.108	0.136	0.024	0.007	-7.237	-1.475
105.553	41.353	40.969	66.300	42.095	0.016	0.113	0.144	0.023	0.008	-3.502	-0.784
105.752	41.284	41.019	66.349	41.940	0.016	0.102	0.141	0.022	0.008	-4.011	-0.554
105.953	41.371	40.848	66.355	42.127	0.016	0.109	0.143	0.022	0.008	-4.771	-0.998
106.154	41.370	40.883	66.258	41.554	0.016	0.109	0.141	0.023	0.008	-4.723	-1.059
106.354	41.254	40.943	66.931	41.887	0.016	0.119	0.146	0.023	0.008	-8.022	-1.640
106.555	41.372	40.953	66.443	41.002	0.016	0.102	0.139	0.024	0.007	-1.958	-0.729
106.754	41.353	40.874	66.474	41.494	0.016	0.118	0.142	0.023	0.008	-3.437	-0.878
106.954	41.260	40.886	66.385	40.958	0.016	0.117	0.140	0.025	0.008	-6.251	-1.355
107.154	41.315	40.829	66.944	41.369	0.015	0.102	0.125	0.023	0.008	-4.998	-1.108
107.354	41.293	40.865	65.519	41.612	0.016	0.119	0.149	0.023	0.007	-7.084	-1.442
107.554	41.351	40.801	66.482	41.604	0.015	0.104	0.145	0.024	0.007	-7.278	-1.377
107.754	41.355	40.871	66.535	41.748	0.016	0.114	0.147	0.022	0.003	-4.941	-0.795
107.954	41.397	40.856	66.305	40.838	0.016	0.110	0.134	0.022	0.003	-5.798	-0.724
108.154	41.324	40.935	66.004	41.763	0.016	0.097	0.135	0.023	0.014	-6.388	-1.601
108.354	41.367	40.956	66.179	41.527	0.016	0.108	0.142	0.022	0.011	-2.119	-0.795
108.554	41.382	40.938	66.054	41.193	0.016	0.113	0.140	0.022	0.008	-3.340	-0.488
108.754	41.388	40.889	66.344	41.265	0.016	0.093	0.147	0.022	0.008	-2.992	-1.080
108.954	41.286	40.833	66.412	41.441	0.015	0.101	0.137	0.022	0.008	-6.477	-1.585
109.155	41.295	40.840	66.274	41.746	0.016	0.116	0.142	0.022	0.007	-6.122	-1.388
109.356	41.377	40.836	66.069	41.164	0.016	0.093	0.141	0.022	0.008	-2.782	-1.234
109.555	41.401	40.848	66.090	41.254	0.016	0.094	0.140	0.024	0.007	-5.062	-1.459
109.755	41.410	40.854	66.372	42.027	0.016	0.102	0.144	0.022	0.007	-4.949	-1.026
109.957	41.395	40.838	66.621	41.434	0.016	0.095	0.136	0.023	0.007	-5.095	-1.612
110.156	41.375	40.892	66.594	41.537	0.016	0.106	0.139	0.022	0.007	-1.966	-0.664
110.357	41.266	40.922	66.184	41.842	0.016	0.105	0.148	0.022	0.008	-3.461	-0.784
110.556	41.381	40.793	65.948	41.664	0.016	0.093	0.147	0.022	0.007	-6.283	-1.558
110.756	41.322	40.934	66.744	40.927	0.016	0.094	0.138	0.023	0.007	-4.416	-0.620
110.956	41.433	40.926	67.199	41.253	0.016	0.114	0.121	0.022	0.007	-2.596	-0.603
111.156	41.343	40.966	66.872	41.342	0.016	0.113	0.140	0.022	0.007	-4.367	-0.466
111.356	41.308	40.885	66.155	41.220	0.016	0.116	0.145	0.023	0.008	-6.348	-1.201
111.557	41.364	40.810	66.330	41.086	0.016	0.104	0.145	0.022	0.007	-5.863	-1.563
111.756	41.294	40.905	66.587	41.813	0.016	0.104	0.148	0.023	0.007	-6.146	-0.559
111.956	41.297	40.931	66.246	41.482	0.016	0.115	0.139	0.023	0.007	-5.297	-0.439
112.157	41.362	40.808	66.191	41.824	0.016	0.105	0.141	0.022	0.007	-5.580	-1.322
112.358	41.250	40.916	66.921	41.560	0.016	0.117	0.143	0.021	0.007	-6.000	-1.048
112.557	41.333	40.880	66.086	41.364	0.016	0.123	0.143	0.021	0.008	-6.502	-1.091
112.757	41.270	40.858	66.315	41.336	0.016	0.103	0.141	0.021	0.007	-5.944	-1.064
112.958	41.257	40.933	66.462	41.432	0.016	0.123	0.147	0.021	0.007	-5.499	-0.658
113.157	41.381	40.914	66.252	41.803	0.016	0.113	0.146	0.021	0.008	-2.119	-0.570
113.357	41.320	40.991	65.987	41.248	0.016	0.112	0.142	0.020	0.007	-3.777	-0.411
113.557	41.372	40.956	66.155	41.677	0.016	0.111	0.142	0.022	0.008	-2.103	-0.389
113.758	41.321	40.876	66.066	41.049	0.016	0.114	0.149	0.021	0.007	-6.033	-1.475
113.957	41.311	40.978	66.193	42.135	0.016	0.122	0.145	0.022	0.007	-4.715	-0.554
114.157	41.234	40.836	66.309	41.641	0.016	0.118	0.150	0.022	0.007	-6.914	-1.174
114.357	41.370	40.872	65.694	41.334	0.016	0.114	0.138	0.023	0.008	-1.117	-0.291
114.557	41.349	40.967	66.213	41.391	0.016	0.119	0.144	0.024	0.008	-3.049	-0.494
114.757	41.301	40.878	66.118	41.328	0.016	0.106	0.138	0.023	0.007	-5.669	-1.585
114.957	41.263	40.925	66.428	41.387	0.016	0.127	0.143	0.023	0.008	-5.167	-0.411
115.157	41.701	41.005	66.775	42.265	0.011	0.151	0.192	0.027	0.007	-5.653	-1.272
115.357	41.262	41.017	65.915	41.755	0.004	0.161	0.208	0.023	0.007	-5.499	-1.804
115.557	41.948	41.843	67.167	41.750	0.005	0.166	0.210	0.024	0.007	110.520	-2.336
115.757	42.413	41.400	67.421	42.506	0.008	0.163	0.209	0.025	0.008	112.889	-2.928
115.958	41.740	41.509	66.310	41.834	0.013	0.180	0.241	0.026	0.007	111.628	-2.122
116.158	41.227	40.645	66.268	41.619	0.027	0.217	0.275	0.032	0.007	494.033	-2.901
116.358	41.018	40.543	66.724	41.213	0.033	0.276	0.318	0.036	0.008	495.852	-2.177
116.558	41.245	40.842	66.132	41.560	0.042	0.353	0.383	0.047	0.007	808.721	-1.963
116.757	40.992	40.667	66.329	41.161	0.047	0.415	0.444	0.053	0.007	1121.025	-1.985
116.957	41.531	41.260	66.544	42.093	0.051	0.489	0.496	0.061	0.007	1121.688	-2.177
117.158	41.219	40.413	66.878	42.563	0.055	0.571	0.575	0.068	0.007	1932.932	-1.700
117.358	41.299	40.315	67.278	42.591	0.054	0.636	0.661	0.083	0.007	1942.764	-2.934
117.558	40.972	41.264	66.368	42.216	0.056	0.754	0.747	0.099	0.007	1938.633	-2.550
117.759	41.393	41.285	67.536	42.991	0.061	0.832	0.838	0.104	0.007	2888.237	-1.174
117.958	40.538	41.342	67.253	42.628	0.055	0.919	0.925	0.115	0.007	2887.590	-2.095
118.159	40.111	40.947	65.918	41.921	0.066	1.026	1.012	0.140	0.007	3442.200	-1.409
118.358	40.331	41.032	66.205	42.424	0.069	1.131	1.130	0.135	0.007	3912.988	-1.015
118.558	40.380	41.591	66.641	43.310	0.072	1.253	1.229	0.161	0.007	3907.158	-1.585
118.759	40.531	41.683	66.588	43.162	0.078	1.369	1.163	0.169	0.007	4955.584	-1.728
118.958	40.077	41.280	66.618	42.903	0.085	1.489	1.422	0.198	0.007	4958.187	-2.325
119.158	39.363	41.003	65.986	43.386	0.096	1.595	1.558	0.211	0.007	4970.639	-1.919
119.359	39.570	41.324	66.578	43.449	0.096	1.730	1.677	0.211	0.007	6011.561	-1.909
119.558	38.764	41.052	65.671	43.339	0.107	1.831	1.771	0.203	0.007	6012.402	-1.590
119.758	38.501	41.228	66.361	43.188	0.105	1.924	1.885	0.242	0.007	6724.348	-0.762
119.958	38.633	41.209	66.935	43.510	0.110	2.045	2.000	0.255	0.007	7036.733	-1.048
120.158	38.522	41.138	65.899	43.314	0.118	2.136	2.100	0.267	0.008	7035.609	-1.744
120.358	39.337	42.046	67.011	45.188	0.124	2.253	2.207	0.285	0.007	8005.022	-0.993
120.558	38.077	41.833	65.387	44.529	0.117	2.344	2.307	0.298	0.007	8005.968	-1.464
120.758	37.517	41.271	65.277	44.545	0.126	2.436	2.409	0.307	0.007	8141.336	-1.739
120.958	37.855	41.896	66.014	44.345	0.130	2.530	2.489	0.319	0.007	8922.236	-1.431
121.158	37.540	41.299	65.301	44.538	0.137	2.637	2.574	0.321	0.008	8921.516	-1.832
121.358	38.086	41.936	66.504	46.068	0.142	2.710	2.626	0.327	0.007	9578.392	-1.492
121.558	37.808	41.927	65.969	45.816	0.143	2.795	2.726	0.333	0.007	9758.991	-0.943
121.758	37.267	41.297	65.351	45.534	0.138	2.867	2.802	0.344	0.007	9759.427	-1.179
121.959	36.633	41.724	65.131	45.535	0.138	2.941	2.886	0.349	17.193	10521.528	-2.386
122.159	36.324	41.874	64.440	45.399	0.137	3.013	2.949	0.375	38.146	10521.851	-3.959
122.359	36.783	43.693	65.497	46.224	0.134	3.074	3.019	0.367	38.093	10676.786	-4.475
122.558	35.769	41.861	64.111	46.067	0.138	3.145	3.080	0.370	38.156	11200.130	-4.299
122.758	35.379	41.193	63.785	44.940	0.143	3.202	3.120	0.366	38.156	11202.450	-3.016
122.958	35.833	41.864	64.258	45.647	0.136	3.228	3.182	0.370	38.143	11803.690	-3.855
123.158	34.724	40.695	63.184	45.617	0.138	3.286	3.218	0.381	38.156	11811.921	-3.992
123.358	34.348	40.874	63.296	45.816	0.140	3.337	3.260	0.364	38.159	11811.565	-3.592
123.559	34.254	40.910	63.009	45.797	0.137	3.359	3.301	0.372	38.159	12339.477	-4.195
123.759	34.459	41.521	63.219	46.072	0.141	3.411	3.343	0.360	38.163	12338.394	-3.746
123.960	33.514	40.777	62.108	45.263	0.200	4.933	4.804	0.504	38.165	12585.519	-2.578
124.160	33.198	41.091	63.804	46.754	0.271	5.100	4.987	0.511	38.164	12791.409	-2.863
124.360	33.209	40.767	70.124	47.278	0.286	5.532	5.391	0.543	38.165	12794.191	-1.470
124.559	33.001	40.904	80.916	49.455	0.322	6.000	5.796	0.586	38.165	13363.759	-3.263
124.760	32.690	40.794	94.076	50.831	0.345	6.410	6.204	0.625	38.165	13367.301	-1.634
124.959	32.568	40.327	110.192	53.213	0.361	6.843	6.658	0.672	38.164	13418.603	-1.585
125.159	32.422	41.056	125.990	55.311	0.415	7.431	7.222	0.702	34.628	14163.062	-1.453
125.359	32.403	40.839	144.657	57.940	0.435	8.078	7.699	0.804	29.012	14163.312	-2.183
125.559	31.990	40.478	164.459	60.262	0.464	8.570	8.279	0.889	29.011	14827.538	-0.905
125.759	31.950	40.302	183.204	62.890	0.491	9.047	8.797	0.915	29.010	15152.843	-1.519
125.961	31.851	41.172	203.502	65.449	0.536	9.682	9.547	1.068	29.010	15155.753	-0.719
126.161	31.661	40.470	225.854	68.928	0.579	10.313	10.241	1.070	28.999	16332.812	-0.028
126.361	31.466	41.922	246.572	71.246	0.635	11.005	10.967	1.160	28.934	16325.704	-0.658
126.561	31.375	41.596	268.421	75.117	0.641	11.818	11.794	1.318	28.933	16616.039	-0.104
126.760	31.495	41.654	288.373	77.313	0.684	12.455	12.531	1.399	28.933	17663.672	1.766
126.962	31.272	39.359	309.663	80.511	0.739	13.446	13.401	1.503	28.934	17668.661	1.524
127.161	31.401	40.723	329.323	84.211	0.773	14.796	14.748	1.769	28.933	19090.977	2.259
127.361	30.919	40.252	351.349	87.732	0.829	16.182	16.129	2.055	-0.207	19171.825	1.820
127.562	30.887	39.852	368.829	91.563	0.845	17.583	17.532	2.276	-0.212	19175.269	3.175
127.762	30.687	40.563	383.389	95.812	0.901	18.978	18.881	2.457	-0.214	20894.874	2.742
127.961	30.558	41.496	395.504	100.525	0.955	20.511	20.484	2.699	-0.214	20895.626	4.310
128.161	30.561	40.722	406.188	104.595	1.013	22.187	22.135	2.935	-0.213	21835.834	3.411
128.361	30.552	41.559	414.655	109.434	1.118	23.862	23.739	3.156	30.770	22859.114	5.643
128.561	30.306	41.553	421.233	114.429	1.149	25.592	25.483	3.376	38.162	22853.115	5.506
128.762	30.009	40.995	426.829	118.782	1.222	27.908	27.919	3.706	38.163	25033.044	6.827
128.961	29.901	41.517	432.338	122.395	1.331	30.068	29.943	3.807	38.164	25036.707	6.421
129.161	29.786	42.828	435.934	127.391	1.336	32.165	32.171	4.174	38.164	25362.149	7.200
129.362	29.646	41.659	438.491	130.543	1.355	34.723	34.658	4.497	38.164	27426.432	9.147
129.562	29.506	42.131	441.464	135.048	1.451	37.667	37.577	4.806	38.164	27426.594	10.479
129.763	29.449	42.570	442.684	137.984	1.410	40.826	40.733	5.206	38.165	29533.689	10.545
129.962	29.344	42.178	446.052	142.660	1.346	43.928	43.835	5.548	38.164	30033.075	12.541
130.162	29.036	42.029	447.473	145.385	1.212	47.497	47.369	6.080	38.165	30034.191	13.506
130.363	28.473	42.201	451.091	148.595	1.145	51.047	50.907	6.547	38.166	32881.160	14.746
130.563	28.803	43.226	451.020	153.013	1.171	54.862	54.633	6.989	38.160	32879.098	14.828
130.763	28.377	43.113	453.221	155.744	1.160	58.372	58.172	7.373	38.160	33808.101	17.658
130.963	28.632	42.398	451.598	159.730	1.252	61.986	61.785	7.546	38.169	35951.435	18.244
131.163	28.075	43.205	456.666	161.815	1.339	65.060	64.767	7.912	38.163	35950.708	19.182
131.363	27.776	43.324	457.550	164.977	1.461	68.472	68.199	8.226	38.163	39054.336	19.950
131.563	27.857	44.341	455.292	167.966	1.570	71.854	71.480	8.538	38.163	39125.052	20.038
131.763	27.474	44.481	453.179	170.022	1.697	73.775	73.489	8.571	22.467	39122.351	20.208
131.963	27.733	45.255	459.142	172.689	1.778	75.307	74.957	8.466	22.463	42250.179	20.701
132.163	27.217	47.257	458.196	174.748	1.839	76.449	76.073	8.323	20.222	42252.961	20.460
132.363	26.961	46.550	454.173	176.904	1.909	77.019	76.574	8.604	16.782	43742.508	21.606
132.563	26.294	46.692	454.249	177.971	2.263	75.132	74.714	8.183	16.781	45049.307	21.485
132.764	26.159	47.330	452.942	180.146	2.208	73.658	73.149	7.346	13.015	45049.258	21.217
132.964	25.935	47.859	451.558	181.253	2.159	72.330	71.872	7.133	12.885	47199.571	19.879
133.163	25.717	48.506	451.316	181.915	2.116	70.760	70.333	6.942	12.884	47207.050	20.279
133.363	25.514	49.079	450.652	182.894	2.073	69.163	68.609	6.610	13.186	47314.078	19.604
133.563	25.441	49.694	449.525	183.584	2.041	67.346	66.868	6.432	13.186	48564.707	19.347
133.763	25.205	50.143	448.394	185.316	1.984	65.548	65.068	6.224	13.074	48561.804	17.860
133.963	24.964	50.846	448.237	185.952	1.912	63.852	63.374	6.384	12.657	49170.717	18.294
134.164	24.818	51.418	446.857	186.384	1.842	62.097	61.677	6.539	12.657	49282.345	18.321
134.364	24.710	51.757	446.458	186.733	1.816	60.497	60.093	6.388	12.473	49281.318	16.797
134.564	24.551	52.430	446.288	187.674	1.780	59.350	58.926	6.158	12.430	49504.366	16.961
134.763	24.411	52.671	446.121	188.382	1.746	58.349	57.870	5.930	12.430	49503.525	16.040
134.963	24.268	53.253	446.557	187.950	1.741	57.275	56.865	6.078	12.317	49461.884	15.618
135.163	24.067	53.678	446.887	189.291	1.703	56.864	56.307	6.016	12.316	49382.509	15.771
135.365	23.928	54.133	447.425	190.017	1.677	55.894	55.422	5.630	12.320	49381.223	15.387
135.566	23.895	54.463	447.381	190.289	1.668	54.786	54.333	5.805	12.391	49059.266	15.349
135.765	23.699	55.006	448.111	190.771	1.641	53.994	53.521	5.784	12.391	49054.422	15.239
135.965	23.687	55.310	449.112	191.537	1.604	53.530	53.024	5.750	12.462	49058.894	15.722
136.165	23.500	55.624	449.312	192.099	1.598	52.939	52.482	5.882	12.505	48597.445	14.329
136.365	23.487	56.004	450.458	192.664	1.574	52.358	51.856	5.761	12.505	48599.434	14.559
136.565	23.392	56.413	451.213	192.942	1.558	51.832	51.391	5.617	12.505	48220.910	14.356
136.766	23.293	56.698	451.906	193.718	1.537	51.357	50.969	5.419	12.505	48086.432	14.362
136.965	23.149	57.062	452.540	194.446	1.518	50.917	50.454	5.475	12.505	48083.464	14.329
137.166	23.066	57.377	453.685	194.646	1.503	50.493	50.052	5.374	13.148	47566.904	13.934
137.366	22.982	57.713	455.471	195.439	1.488	50.008	49.598	5.261	13.148	47569.023	14.417
137.565	22.953	58.117	456.666	196.225	1.479	49.486	49.117	5.066	13.230	47460.273	14.614
137.765	22.785	58.280	458.160	196.760	1.460	49.063	48.683	5.088	13.338	47067.526	13.824
137.965	22.767	58.490	459.434	197.550	1.452	48.697	48.307	5.236	13.337	47069.143	14.164
138.165	22.742	58.611	461.018	197.750	1.434	48.265	47.921	4.974	13.153	46596.933	13.046
138.365	22.690	58.910	461.882	198.711	1.421	47.938	47.607	5.224	13.149	46576.654	13.643
138.565	22.592	59.199	463.588	198.702	1.412	47.675	47.304	5.162	13.148	46579.201	13.846
138.766	22.603	59.477	465.167	199.836	1.421	47.146	46.781	5.212	12.997	46105.098	13.600
138.966	22.531	59.619	465.768	200.433	1.407	46.927	46.501	5.199	12.997	46105.098	13.715
139.166	22.452	59.838	467.913	201.201	1.402	46.631	46.242	5.203	12.919	45826.035	12.618
139.366	22.480	60.108	469.262	200.811	1.398	46.310	45.992	5.054	12.770	45653.166	13.698
139.565	22.441	60.246	470.782	202.189	1.385	46.163	45.769	5.003	12.770	45653.287	13.545
139.765	22.256	60.611	471.586	202.972	1.379	45.914	45.605	4.951	13.312	45235.007	12.832
139.965	22.247	60.444	473.649	203.508	1.351	46.113	45.748	5.150	13.337	45236.220	13.704
140.165	22.299	60.800	475.558	204.133	1.364	45.987	45.654	5.145	13.338	45221.375	13.759
140.365	22.247	60.846	477.039	205.260	1.348	45.809	45.535	5.040	12.997	44879.907	12.602
140.566	22.151	61.039	478.412	206.070	1.361	45.590	45.296	4.951	12.997	44878.799	12.530
140.765	22.112	61.362	479.609	206.401	1.358	45.495	45.203	5.018	13.024	44628.876	13.112
140.966	22.168	61.457	481.055	207.038	1.346	45.480	45.122	4.934	13.224	44584.357	13.364
141.167	22.200	61.508	482.324	207.637	1.352	45.138	44.771	4.861	13.225	44582.643	13.090
141.366	22.043	61.819	484.086	208.908	1.319	45.350	45.004	4.958	13.313	44330.067	13.633
141.567	22.013	61.965	485.246	210.048	1.338	45.063	44.710	4.962	13.338	44326.315	13.057
141.767	21.970	62.106	486.774	210.634	1.340	45.182	44.869	4.976	13.337	44255.931	12.777
141.967	22.038	62.122	488.154	211.103	1.330	45.025	44.726	5.042	13.073	44117.798	12.344
142.168	21.914	62.393	489.821	211.438	1.313	45.039	44.708	5.028	13.073	44121.024	13.583
142.367	21.871	62.540	491.757	212.778	1.316	44.892	44.554	4.917	13.072	43946.231	13.221
142.568	21.860	62.503	492.202	213.443	1.316	44.912	44.612	5.012	13.338	43941.153	12.338
142.768	21.827	62.781	493.810	213.920	1.316	44.666	44.303	4.718	13.338	43942.318	13.144
142.968	21.793	62.837	495.212	214.397	1.326	44.615	44.264	4.975	13.005	43788.693	12.053
143.168	21.850	63.002	496.968	215.367	1.314	44.660	44.335	5.029	12.694	43794.434	13.282
143.369	21.734	63.122	497.438	216.382	1.322	44.564	44.245	4.995	12.694	43704.757	12.218
143.569	21.800	63.167	498.301	217.190	1.314	44.666	44.332	5.110	12.469	43655.799	12.470
143.769	21.750	63.260	500.335	217.940	1.317	44.627	44.376	5.023	12.467	43656.058	12.377
143.969	21.730	63.347	501.223	218.389	1.316	44.657	44.377	5.112	12.467	43550.865	12.174
144.169	21.740	63.532	502.757	219.516	1.315	44.462	44.099	4.894	12.429	43549.458	12.245
144.369	21.722	63.759	503.838	219.541	1.306	44.458	44.126	4.915	12.429	43543.103	13.320
144.569	21.714	63.862	504.438	220.059	1.303	44.689	44.360	5.085	12.455	43467.601	13.391
144.769	21.601	63.879	506.228	221.042	1.301	44.760	44.444	5.114	12.505	43462.757	12.596
144.969	21.674	63.994	507.128	221.369	1.293	44.788	44.455	4.983	12.505	43409.846	13.183
145.169	21.666	64.110	507.679	221.817	1.316	44.724	44.364	5.008	12.470	43398.865	13.112
145.369	21.582	64.277	508.525	222.878	1.301	44.668	44.323	5.055	12.467	43399.318	13.435
145.569	21.623	64.430	509.007	223.964	1.309	44.596	44.285	4.964	12.467	43358.406	13.600
145.769	21.656	64.441	509.628	224.689	1.300	44.704	44.402	4.921	12.430	43355.503	12.569
145.969	21.608	64.537	510.227	224.855	1.306	44.699	44.348	5.095	12.429	43343.447	13.101
146.170	21.518	64.819	511.938	225.659	1.313	44.566	44.227	4.877	12.424	43321.592	13.649
146.369	21.529	64.893	512.757	226.011	1.313	44.616	44.298	4.999	12.391	43321.091	13.375
146.569	21.541	64.976	513.024	226.485	1.316	44.614	44.242	4.999	12.391	43297.271	13.452
146.770	21.549	65.015	514.159	227.822	1.310	44.570	44.269	5.186	12.264	43294.247	12.536
146.969	21.481	65.103	514.765	228.277	1.299	44.595	44.282	5.077	12.240	43293.317	12.898
147.169	21.480	65.354	515.301	228.730	1.303	44.620	44.290	4.964	12.240	43277.752	13.567
147.370	21.441	65.454	516.195	229.423	1.288	44.964	44.642	5.415	12.467	43275.828	13.808
147.569	21.554	65.455	515.345	229.732	1.299	44.719	44.373	5.043	12.468	43272.885	13.803
147.771	21.535	65.472	516.107	230.441	1.303	44.831	44.520	5.102	12.505	43268.972	13.123
147.971	21.455	65.626	517.106	231.171	1.302	44.787	44.429	5.024	12.845	43265.899	12.486
148.172	21.419	65.730	517.455	231.990	1.305	44.844	44.496	5.097	12.846	43265.034	13.068
148.372	21.388	65.939	517.512	232.339	1.317	44.712	44.369	4.847	12.645	43268.131	13.638
148.573	21.466	66.008	518.564	233.157	1.288	45.037	44.706	5.192	12.506	43271.333	13.687
148.772	21.423	66.018	518.539	233.414	1.301	44.942	44.604	5.217	12.505	43272.521	12.991
148.972	21.367	66.209	518.651	234.754	1.305	44.992	44.623	5.185	12.694	43272.780	13.380
149.172	21.456	66.294	518.818	235.008	1.315	44.774	44.445	5.028	12.695	43288.708	13.205
149.372	21.301	66.395	519.505	234.980	1.309	45.086	44.718	5.240	12.694	43282.685	13.369
149.572	21.413	66.409	519.458	235.798	1.310	44.891	44.523	5.089	12.619	43288.126	13.238
149.772	21.342	66.625	519.571	236.611	1.310	44.916	44.604	4.995	12.619	43297.562	13.781
149.973	21.335	66.626	519.683	236.973	1.305	44.915	44.576	4.949	12.602	43295.104	13.068
150.174	21.329	66.811	519.939	237.515	1.302	45.029	44.711	5.081	12.580	43301.451	14.247
150.373	21.261	66.843	519.155	238.579	1.315	45.002	44.653	5.159	12.580	43302.656	13.353
150.573	21.338	66.860	519.790	238.429	1.302	44.873	44.568	5.063	12.395	43305.098	13.347
150.774	21.393	66.940	519.167	239.334	1.301	45.155	44.847	5.275	12.392	43314.647	13.309
150.973	21.344	67.095	519.909	239.474	1.316	44.949	44.631	5.175	12.391	43314.267	12.898
151.173	21.327	67.201	519.365	240.420	1.316	44.949	44.633	5.314	12.544	43313.110	12.750
151.374	21.232	67.404	520.591	241.018	1.307	45.051	44.702	5.278	12.543	43324.527	14.356
151.573	21.227	67.481	520.095	241.888	1.318	44.900	44.574	5.083	12.607	43323.355	13.704
151.773	21.334	67.600	520.953	241.804	1.309	44.905	44.533	5.132	12.808	43337.577	14.504
151.973	21.280	67.671	521.326	242.265	1.317	44.884	44.488	5.119	12.808	43335.936	13.622
152.173	21.366	67.793	521.299	242.976	1.305	44.955	44.620	5.318	12.430	43339.744	14.296
152.373	21.302	67.702	521.023	243.673	1.312	45.060	44.720	5.270	12.353	43340.658	13.112
152.574	21.318	67.959	521.836	243.995	1.311	45.056	44.703	5.179	12.353	43345.364	14.587
152.775	21.321	68.088	522.276	244.436	1.312	45.055	44.768	5.186	12.165	43350.385	14.236
152.975	21.350	67.988	522.988	244.861	1.326	44.986	44.625	5.171	12.165	43356.805	13.506
153.175	21.280	68.148	522.667	246.071	1.322	45.062	44.759	5.267	12.140	43352.665	13.194
153.377	21.278	68.332	523.853	246.270	1.318	45.156	44.787	5.221	11.824	43367.130	14.472
153.577	21.384	68.398	523.043	246.562	1.334	45.202	44.851	5.244	11.824	43368.973	14.016
153.776	21.366	68.466	522.841	246.677	1.334	45.184	44.859	5.326	12.356	43367.405	13.375
153.977	21.232	68.626	524.167	247.265	1.320	45.125	44.781	5.377	12.618	43372.579	13.704
154.176	21.381	68.603	524.138	248.025	1.326	45.085	44.711	5.237	12.619	43375.514	13.852
154.377	21.332	68.633	524.690	248.628	1.318	45.164	44.782	5.436	11.975	43382.945	13.885
154.577	21.245	68.795	525.220	248.809	1.317	45.107	44.723	5.229	11.975	43382.298	13.567
154.776	21.253	68.924	524.744	249.784	1.320	45.176	44.823	5.320	11.975	43383.786	14.186
154.976	21.258	68.912	525.422	249.719	1.308	45.240	44.884	5.396	12.354	43391.540	13.364
155.178	21.339	68.958	525.753	249.423	1.318	45.053	44.665	5.260	12.354	43393.982	13.983
155.377	21.223	69.191	525.167	251.073	1.317	45.074	44.747	5.285	12.257	43391.184	13.813
155.578	21.251	69.318	525.294	250.960	1.325	45.125	44.786	5.201	12.164	43402.601	13.978
155.777	21.344	69.306	524.725	251.777	1.332	45.077	44.722	5.313	12.164	43403.361	14.186
155.979	21.281	69.329	525.476	252.261	1.319	45.186	44.877	5.379	12.240	43404.614	13.435
156.178	21.324	69.439	525.159	252.238	1.333	44.987	44.620	5.231	12.240	43407.436	13.923
156.378	21.304	69.554	525.014	252.786	1.322	45.169	44.811	5.390	12.240	43409.288	14.450
156.578	21.206	69.736	525.689	253.534	1.311	45.353	45.012	5.563	11.937	43409.676	14.718
156.778	21.260	69.647	524.961	254.190	1.306	45.163	44.836	5.330	11.937	43409.878	13.748
156.978	21.199	69.742	525.534	254.440	1.318	45.183	44.881	5.333	12.043	43412.279	13.512
157.180	21.151	69.803	525.604	254.462	1.317	45.132	44.754	5.369	12.278	43419.435	13.918
157.380	21.186	69.867	525.219	255.377	1.307	45.168	44.747	5.351	12.278	43419.993	13.627
157.580	21.252	70.004	524.637	255.464	1.310	45.148	44.747	5.381	12.316	43430.520	14.153
157.780	21.243	69.980	524.225	255.858	1.306	45.157	44.806	5.370	12.316	43427.884	13.983
157.981	21.168	70.146	524.520	256.601	1.319	45.046	44.702	5.411	12.316	43425.596	13.781
158.181	21.181	70.275	524.525	256.538	1.314	45.372	44.976	5.600	12.050	43428.758	14.729
158.382	21.238	70.247	524.864	258.273	1.308	45.244	44.852	5.480	12.051	43426.995	13.748
158.582	21.273	70.352	525.213	257.966	1.322	45.256	44.909	5.384	12.151	43436.293	14.351
158.781	21.257	70.342	525.225	258.710	1.321	45.252	44.864	5.452	12.694	43435.808	13.605
158.983	21.186	70.413	525.514	258.880	1.326	45.286	44.868	5.553	12.694	43436.641	13.676
159.182	21.105	70.538	525.728	259.753	1.326	45.369	45.007	5.477	12.577	43446.756	14.461
159.382	21.084	70.591	525.566	259.519	1.336	45.113	44.705	5.420	12.543	43443.869	13.627
159.584	21.197	70.654	526.764	259.721	1.313	45.231	44.968	5.395	12.544	43452.464	14.565
159.783	21.176	70.715	526.109	259.765	1.311	45.324	44.995	5.531	12.504	43456.184	13.923
159.983	21.263	70.811	526.860	261.291	1.313	45.248	44.861	5.539	12.504	43457.502	14.548
160.183	21.165	70.838	526.572	261.235	1.318	45.326	44.961	5.480	12.510	43461.205	13.671
160.384	21.199	70.939	526.993	261.293	1.323	45.278	44.857	5.469	12.694	43464.326	14.066
160.584	21.208	71.055	526.614	261.651	1.327	45.267	44.891	5.541	12.694	43465.272	15.102
160.784	21.242	71.116	526.672	262.169	1.336	45.191	44.798	5.276	12.602	43468.231	14.504
160.984	21.201	71.078	526.749	262.133	1.328	45.288	44.950	5.453	12.543	43464.932	13.841
161.184	21.109	71.188	526.593	263.245	1.328	45.342	44.998	5.747	12.543	43461.261	13.622
161.386	21.072	71.282	526.892	263.482	1.347	45.267	44.868	5.421	12.656	43461.528	14.033
161.585	21.056	71.314	526.875	263.879	1.340	45.231	44.864	5.505	12.656	43460.679	14.280
161.786	21.074	71.354	526.503	264.057	1.323	45.223	44.881	5.586	12.656	43460.299	13.561
161.986	21.161	71.478	527.079	264.495	1.331	45.311	44.927	5.493	12.505	43466.040	14.587
162.186	21.170	71.503	527.081	264.882	1.340	45.147	44.777	5.540	12.505	43465.094	14.855
162.386	21.119	71.616	527.402	265.372	1.323	45.154	44.806	5.499	12.609	43467.334	14.746
162.586	21.101	71.617	527.914	265.327	1.324	45.298	44.944	5.602	12.732	43463.622	13.940
162.787	21.115	71.793	527.631	265.500	1.322	45.306	44.891	5.505	12.732	43467.132	14.718
162.986	21.158	71.734	527.614	265.801	1.318	45.099	44.784	5.414	12.248	43468.369	14.329
163.186	21.154	71.745	527.697	266.659	1.311	45.147	44.804	5.520	12.240	43465.167	13.704
163.386	21.080	71.826	527.700	267.123	1.309	45.233	44.890	5.590	12.240	43464.285	14.126
163.587	21.128	71.947	527.513	267.931	1.314	45.104	44.793	5.582	12.316	43467.318	15.102
163.786	21.101	71.893	527.586	267.247	1.280	45.257	44.874	5.597	12.316	43464.948	13.709
163.986	21.103	71.980	528.000	267.752	1.299	45.220	44.819	5.552	12.247	43465.272	13.676
164.186	21.074	72.015	528.050	268.426	1.298	45.366	44.994	5.550	12.050	43463.234	13.682
164.386	21.012	72.122	528.004	269.297	1.306	45.325	44.915	5.569	12.050	43472.371	13.605
164.586	21.043	72.254	528.627	269.142	1.293	45.506	45.132	5.654	12.594	43473.268	14.844
164.787	21.077	72.220	528.578	269.094	1.294	45.374	44.996	5.591	12.618	43472.517	14.192
164.987	21.045	72.303	528.084	269.439	1.306	45.432	45.047	5.368	12.619	43487.766	14.312
165.187	21.027	72.357	527.939	269.862	1.325	45.396	44.978	5.494	12.353	43486.901	13.983
165.388	21.028	72.477	528.373	270.367	1.326	45.374	45.015	5.396	12.353	43494.048	14.274
165.589	21.013	72.380	528.313	271.083	1.322	45.327	44.989	5.280	12.363	43500.032	13.852
165.789	21.055	72.475	528.178	271.439	1.305	45.363	44.921	5.259	12.429	43500.686	13.978
165.989	21.096	72.511	528.134	271.321	1.323	45.404	45.085	5.642	12.429	43504.099	13.830
166.190	21.074	72.591	528.202	272.011	1.318	45.475	45.118	5.548	12.043	43506.751	14.504
166.390	21.062	72.778	528.610	272.008	1.337	45.559	45.199	5.619	11.975	43505.045	14.872
166.590	21.057	72.807	528.941	272.671	1.325	45.512	45.136	5.576	11.974	43513.494	14.729
166.790	21.154	72.731	529.041	272.940	1.352	45.573	45.183	5.634	12.543	43513.712	14.016
166.990	21.029	72.863	528.994	272.589	1.344	45.416	45.023	5.434	12.543	43528.606	14.625
167.190	21.062	72.973	529.648	273.466	1.334	45.468	45.090	5.500	12.543	43534.403	14.576
167.391	21.004	72.953	529.402	274.012	1.323	45.600	45.258	5.655	12.391	43533.142	14.417
167.590	21.154	72.961	529.076	274.071	1.345	45.404	45.062	5.603	12.392	43543.976	14.022
167.792	21.029	72.975	528.878	274.465	1.338	45.448	45.068	5.547	12.266	43539.481	14.186
167.991	21.140	73.088	528.882	274.786	1.330	45.442	45.124	5.564	12.165	43544.785	14.658
168.191	21.026	73.156	528.788	274.662	1.325	45.439	45.071	5.336	12.164	43542.270	14.362
168.391	21.107	73.132	528.404	275.576	1.330	45.506	45.096	5.453	12.240	43544.753	14.291
168.592	21.061	73.307	528.389	274.886	1.336	45.626	45.234	5.699	12.240	43547.316	15.278
168.791	21.002	73.287	527.913	275.434	1.342	45.565	45.195	5.727	12.240	43542.238	14.148
168.991	21.068	73.259	528.463	275.412	1.334	45.437	45.068	5.418	12.544	43545.844	14.263
169.191	21.010	73.448	528.568	276.361	1.338	45.544	45.165	5.619	12.543	43556.177	14.450
169.392	21.018	73.468	528.738	276.820	1.327	45.755	45.386	5.651	12.493	43559.719	15.508
169.591	21.062	73.526	528.756	276.932	1.326	45.863	45.446	5.618	12.429	43568.031	15.141
169.791	21.032	73.448	528.750	277.586	1.344	46.013	45.694	5.768	12.430	43567.149	14.203
169.991	21.067	73.576	530.075	276.306	1.346	46.157	45.792	5.620	13.018	43572.785	15.267
170.191	21.022	73.599	530.286	277.975	1.346	46.440	46.018	5.600	13.035	43608.483	15.842
170.391	21.128	73.691	530.385	278.088	1.341	46.780	46.439	5.828	13.035	43609.202	15.541
170.592	21.142	73.731	531.226	277.647	1.351	47.002	46.630	5.629	12.430	43616.123	15.316
170.791	21.031	73.873	532.774	278.179	1.358	47.435	47.063	5.731	12.429	43681.624	15.738
170.992	21.017	73.809	534.039	279.239	1.365	47.756	47.406	5.867	12.469	43679.344	15.223
171.193	21.085	73.938	535.543	279.358	1.367	48.067	47.637	5.858	12.619	43800.716	16.292
171.392	21.014	73.889	536.792	279.628	1.362	48.385	48.039	5.830	12.619	43816.507	15.278
171.592	21.079	73.991	538.183	279.851	1.371	48.860	48.507	6.124	12.463	43822.135	16.468
171.792	21.098	74.053	539.803	279.798	1.386	49.057	48.625	5.950	12.430	44010.050	16.681
171.992	21.053	74.096	541.083	280.654	1.404	49.555	49.160	6.005	12.429	44005.611	15.771
172.193	21.050	74.235	542.781	280.822	1.399	50.064	49.573	6.046	12.505	44099.557	16.879
172.392	21.104	74.106	544.453	281.806	1.412	50.252	49.828	6.074	12.505	44237.520	15.810
172.592	21.130	74.191	545.983	281.770	1.430	50.825	50.427	6.080	12.508	44239.590	16.177
172.794	21.043	74.298	547.718	282.273	1.449	51.329	50.871	6.077	12.544	44520.885	16.193
172.993	21.082	74.431	549.739	282.054	1.466	51.831	51.350	6.197	12.543	44523.845	16.676
173.193	21.061	74.542	551.824	282.622	1.463	52.520	52.065	6.531	12.518	44526.602	17.888
173.393	21.066	74.569	553.394	282.697	1.487	52.810	52.310	6.116	12.505	44857.639	16.517
173.593	21.060	74.693	555.310	283.678	1.492	53.561	53.129	6.691	12.505	44861.876	18.096
173.795	20.980	74.793	557.671	284.242	1.516	54.165	53.641	6.478	12.694	45111.185	17.680
173.995	20.969	74.918	560.419	284.401	1.517	55.007	54.467	6.701	12.694	45238.864	18.519
174.194	21.049	74.941	562.656	284.186	1.548	55.658	55.106	6.661	12.695	45240.602	17.833
174.395	21.015	75.059	564.825	284.540	1.560	56.638	56.104	7.120	12.656	45671.674	18.573
174.594	21.004	75.173	567.582	285.481	1.592	57.323	56.723	6.842	12.657	45671.156	18.584
174.794	21.016	75.285	569.283	286.213	1.609	58.092	57.485	6.967	12.656	45827.846	18.683
174.994	20.999	75.515	571.999	285.978	1.621	58.545	57.925	7.031	12.656	46176.776	20.043
175.194	20.969	75.647	574.669	286.382	1.633	59.197	58.576	6.978	12.656	46173.081	20.087
175.394	20.996	75.720	577.270	285.953	1.642	59.769	59.147	6.954	13.178	46683.981	19.358
175.595	21.049	75.883	578.729	286.980	1.662	60.295	59.588	7.319	13.186	46711.965	20.888
175.794	21.022	76.127	580.353	286.848	1.667	60.706	60.018	7.103	13.186	46713.146	21.025
175.994	20.926	76.209	582.215	287.000	1.693	60.911	60.226	7.182	13.148	47252.281	20.443
176.194	20.906	76.401	583.057	287.884	1.717	61.293	60.619	7.325	13.148	47251.100	20.449
176.394	21.012	76.513	583.540	287.419	1.706	61.445	60.792	7.145	13.250	47532.792	21.041
176.595	20.919	76.625	584.785	287.717	1.691	61.880	61.242	7.378	13.414	47759.615	20.339
176.796	20.978	76.806	585.559	287.840	1.719	61.866	61.270	7.080	13.414	47762.509	20.416
176.995	20.882	76.950	586.293	288.436	1.717	62.117	61.456	7.217	13.159	48220.287	20.476
177.197	20.916	77.101	587.066	287.879	1.720	62.590	61.920	7.566	13.149	48222.082	20.668
177.396	20.939	77.357	587.724	287.725	1.707	62.910	62.289	7.727	13.149	48235.124	21.568
177.596	20.939	77.539	588.606	288.416	1.745	62.927	62.362	7.584	13.451	48632.924	21.798
177.797	20.964	77.674	588.871	288.445	1.742	63.218	62.669	7.296	13.451	48632.714	21.233
177.997	20.929	77.810	589.316	287.997	1.739	63.452	62.850	7.612	13.484	48892.955	21.134
178.197	20.952	77.997	589.855	288.363	1.729	63.714	63.061	7.694	13.752	48991.824	21.293
178.397	20.957	78.277	590.031	288.683	1.747	63.842	63.244	7.652	13.753	48994.945	21.973
178.598	20.930	78.391	590.566	288.138	1.740	64.188	63.605	7.780	13.781	49320.210	21.639
178.798	20.845	78.558	590.354	288.614	1.757	64.293	63.733	7.553	13.791	49317.331	21.392
178.999	20.787	78.819	590.739	289.066	1.758	64.503	63.963	7.751	13.791	49392.616	21.853
179.198	20.784	79.038	590.916	288.442	1.779	64.641	64.122	7.813	13.903	49623.280	22.418
179.400	20.829	79.123	590.632	288.917	1.804	64.663	64.053	7.643	13.903	49621.905	20.964
179.600	20.851	79.321	590.736	288.640	1.806	64.809	64.272	7.564	13.904	49881.014	22.001
179.799	20.742	79.580	590.539	288.973	1.795	64.989	64.454	7.776	13.941	49883.747	22.088
179.999	20.756	79.622	590.007	289.527	1.809	64.988	64.387	7.676	13.942	49884.927	21.809
180.199	20.807	79.836	590.590	289.005	1.798	65.275	64.792	7.843	13.825	50110.966	21.781
180.400	20.803	80.024	590.038	289.311	1.820	65.253	64.699	7.717	13.753	50113.990	22.566
180.600	20.809	80.249	589.702	289.316	1.823	65.344	64.793	8.015	13.753	50225.158	22.631
180.800	20.891	80.390	589.430	288.989	1.843	65.295	64.727	7.462	13.908	50310.775	22.845
181.001	20.704	80.613	589.965	289.381	1.829	65.321	64.804	7.904	13.900	50304.388	22.374
181.201	20.811	80.633	589.952	289.272	1.836	65.458	64.911	7.800	13.906	50471.863	22.368
181.402	20.843	80.903	589.550	289.301	1.813	65.668	65.128	7.847	13.754	50473.165	22.544
181.602	20.805	81.038	589.320	289.568	1.836	65.588	65.053	7.883	13.753	50486.134	22.231
181.802	20.834	81.242	589.000	289.418	1.823	65.675	65.131	7.836	13.768	50609.123	22.072
182.002	20.862	81.463	589.486	289.606	1.809	65.989	65.505	7.979	13.792	50609.568	22.725
182.202	20.805	81.642	589.510	289.537	1.815	66.017	65.473	8.075	13.791	50711.227	23.465
182.402	20.795	81.666	588.931	290.318	1.832	66.118	65.601	7.723	13.897	50720.477	22.083
182.602	20.781	81.836	588.838	289.529	1.829	66.561	66.069	8.043	13.903	50724.221	22.527
182.802	20.701	82.099	590.464	290.293	1.850	67.034	66.543	7.766	13.903	50841.372	23.646
183.002	20.688	82.271	590.806	290.114	1.842	67.635	67.087	7.899	13.715	50836.375	23.235
183.202	20.734	82.298	591.321	290.147	1.839	68.361	67.841	8.191	13.715	50901.480	22.785
183.402	20.754	82.630	592.587	290.368	1.859	69.103	68.612	8.120	13.693	51003.236	24.298
183.602	20.820	82.743	593.891	290.212	1.888	69.748	69.204	8.235	13.565	51002.411	24.430
183.802	20.771	82.878	595.630	290.903	1.899	70.437	69.944	8.520	13.565	51243.732	23.657
184.002	20.694	83.078	597.687	291.202	1.916	71.139	70.630	8.515	14.126	51245.583	24.408
184.203	20.808	83.220	598.883	291.321	1.948	71.722	71.173	8.816	14.320	51249.408	24.852
184.402	20.759	83.486	601.164	290.954	1.977	72.189	71.629	8.625	14.320	51568.648	25.708
184.602	20.681	83.647	601.604	291.715	2.004	72.746	72.182	8.591	14.395	51565.972	25.313
184.804	20.831	83.781	602.840	291.247	2.000	73.281	72.683	8.803	14.396	51823.496	25.927
185.003	20.696	84.065	603.801	292.038	2.039	73.733	73.124	8.979	14.395	51916.269	25.713
185.203	20.782	84.162	603.793	292.095	2.060	74.105	73.491	9.016	14.546	51916.924	25.176
185.403	20.768	84.468	605.235	292.529	2.101	74.610	73.957	9.040	14.546	52278.638	26.103
185.603	20.791	84.599	606.534	292.416	2.103	75.055	74.413	9.128	14.381	52276.213	25.680
185.804	20.722	84.983	606.977	292.308	2.137	75.481	74.806	9.229	14.206	52367.417	26.432
186.005	20.798	85.055	607.161	292.337	2.147	75.782	75.083	9.215	14.207	52626.736	26.662
186.206	20.724	85.281	608.238	292.791	2.167	75.975	75.335	9.260	14.356	52622.055	25.806
186.408	20.725	85.567	608.941	293.257	2.177	76.362	75.624	9.381	14.357	52948.686	26.843
186.607	20.756	85.645	609.849	292.724	2.191	76.392	75.717	9.347	14.358	52951.128	26.026
186.809	20.726	85.961	610.205	292.404	2.208	76.593	75.936	9.248	14.509	52953.278	27.183
187.008	20.709	86.194	610.594	293.153	2.209	76.688	75.964	9.344	14.509	53244.559	27.463
187.208	20.670	86.343	611.558	292.843	2.224	76.698	75.992	9.428	14.358	53241.301	25.971
187.408	20.739	86.538	611.900	292.538	2.218	76.694	75.976	9.453	14.056	53386.913	25.856
187.608	20.764	86.710	612.739	293.346	2.222	76.699	75.970	9.306	14.056	53488.758	26.826
187.808	20.647	86.979	613.796	293.680	2.202	76.600	75.927	9.343	14.317	53486.244	26.262
188.008	20.749	87.044	614.081	293.072	2.215	76.621	75.828	9.426	14.358	53671.362	26.108
188.210	20.640	87.343	614.745	292.980	2.220	76.538	75.779	9.273	14.358	53668.847	26.075
188.410	20.653	87.595	615.235	293.111	2.203	76.488	75.734	9.088	14.281	53705.022	26.909
188.611	20.714	87.786	615.581	292.815	2.214	76.348	75.658	9.294	14.282	53808.185	27.090
188.811	20.630	87.949	616.527	293.092	2.222	76.061	75.379	9.144	14.283	53804.870	27.068
189.011	20.704	88.046	616.598	292.646	2.215	76.157	75.425	9.185	14.320	53886.663	26.103
189.211	20.610	88.302	616.951	293.055	2.204	76.171	75.369	9.352	14.320	53890.940	27.254
189.411	20.610	88.503	617.286	292.388	2.201	76.104	75.344	9.413	14.463	53891.070	26.794
189.611	20.627	88.691	617.479	292.548	2.188	75.830	75.097	9.293	14.546	53943.715	27.123
189.811	20.629	88.719	617.239	292.989	2.198	76.024	75.319	9.402	14.547	53940.577	26.399
190.011	20.628	88.936	617.437	293.478	2.194	76.656	75.948	9.549	14.546	53951.695	26.525
190.211	20.583	89.077	618.172	292.204	2.205	77.456	76.748	9.654	14.546	53966.872	27.177
190.411	20.665	89.262	618.411	292.314	2.216	78.588	77.806	9.900	14.547	53973.777	27.709
190.611	20.608	89.399	620.056	293.272	2.249	79.461	78.756	10.055	14.623	54071.086	27.216
190.811	20.628	89.619	620.989	293.578	2.296	80.584	79.717	10.200	14.622	54073.803	29.086
191.011	20.656	89.796	622.139	292.715	2.305	81.605	80.786	10.107	14.573	54080.845	28.576
191.212	20.601	90.052	623.559	293.812	2.330	82.659	81.794	10.351	14.509	54307.596	29.903
191.412	20.552	90.158	625.130	293.714	2.357	83.533	82.768	10.716	14.508	54302.663	29.360
191.612	20.639	90.275	627.500	293.592	2.391	84.283	83.488	10.447	15.064	54569.308	30.243
191.812	20.624	90.502	628.981	294.308	2.403	85.216	84.373	10.653	15.076	54661.216	30.303
192.012	20.643	90.652	630.607	294.572	2.439	85.985	85.176	10.821	15.076	54658.240	29.859
192.212	20.538	90.866	631.961	294.633	2.438	87.009	86.179	11.119	15.416	55078.437	29.634
192.412	20.592	91.120	632.949	294.780	2.466	87.957	87.121	10.973	15.417	55083.887	30.588
192.612	20.613	91.261	634.556	295.038	2.481	89.219	88.408	11.010	15.379	55212.899	30.934
192.812	20.465	91.443	636.081	295.422	2.526	90.529	89.778	11.144	15.228	55557.027	31.060
193.012	20.577	91.677	638.574	295.379	2.556	91.556	90.721	11.496	15.228	55561.232	31.597
193.213	20.443	92.054	640.461	295.537	2.600	92.577	91.687	11.467	15.549	56094.407	31.756
193.413	20.557	92.197	642.112	296.519	2.640	93.600	92.713	11.628	15.644	56107.255	31.658
193.613	20.517	92.617	643.582	296.609	2.681	94.201	93.340	11.783	15.644	56108.080	32.601
193.814	20.508	92.869	644.519	296.474	2.696	94.838	93.966	11.577	15.908	56683.777	32.606
194.013	20.547	93.051	645.181	296.910	2.742	95.344	94.492	11.729	15.909	56682.427	31.713
194.214	20.512	93.316	645.715	297.558	2.752	95.780	94.913	11.840	15.907	57009.026	31.784
194.414	20.578	93.588	646.443	298.018	2.762	96.198	95.314	11.971	15.720	57232.874	32.738
194.614	20.554	93.821	647.148	297.140	2.752	96.498	95.677	11.771	15.720	57231.879	31.937
194.815	20.519	94.176	647.281	297.906	2.770	96.916	95.982	11.711	15.759	57710.793	31.751
195.014	20.486	94.471	646.973	298.639	2.776	97.284	96.267	11.706	15.795	57716.226	33.188
195.215	20.489	94.789	647.806	299.030	2.784	97.486	96.521	11.694	15.795	57769.510	32.595
195.415	20.546	94.892	646.590	298.709	2.814	97.693	96.753	11.671	15.834	58129.016	31.866
195.616	20.460	95.212	646.644	299.061	2.818	97.823	96.837	11.586	15.833	58124.852	31.828
195.816	20.532	95.530	645.819	299.443	2.819	97.965	96.989	11.451	15.833	58465.932	32.354
196.016	20.522	95.790	644.738	299.224	2.817	98.154	97.103	11.513	15.834	58472.829	31.959
196.216	20.510	96.100	643.792	299.234	2.826	98.124	97.123	11.544	15.834	58476.654	32.870
196.415	20.549	96.340	643.396	299.447	2.819	98.263	97.232	11.691	15.841	58754.456	33.133
196.615	20.443	96.706	642.758	300.027	2.836	98.078	97.113	11.313	15.871	58752.750	32.266
196.817	20.433	96.907	641.679	300.137	2.853	97.980	97.034	11.673	15.871	58849.970	32.870
197.017	20.502	97.085	640.717	299.571	2.857	97.968	97.021	11.454	15.753	58971.350	31.597
197.217	20.515	97.298	640.323	300.658	2.841	97.937	96.977	11.357	15.719	58967.041	31.910
197.417	20.437	97.660	640.095	300.686	2.849	98.128	97.099	12.045	15.719	59128.735	32.842
197.617	20.505	97.830	639.924	300.296	2.837	98.275	97.269	11.628	15.946	59128.096	32.102
197.817	20.547	98.027	639.877	300.694	2.859	98.048	97.059	11.430	15.947	59135.729	32.228
198.017	20.498	98.323	639.366	300.365	2.862	97.190	96.202	11.459	15.936	59260.505	32.069
198.218	20.412	98.671	638.698	300.431	2.846	96.604	95.556	11.077	15.568	59257.440	32.063
198.418	20.485	98.734	637.487	300.458	2.821	95.848	94.827	10.986	15.568	59299.695	31.734
198.619	20.465	98.924	637.196	300.961	2.791	95.469	94.452	10.996	15.321	59312.859	31.937
198.818	20.394	99.233	635.642	300.270	2.796	94.996	93.949	10.799	15.076	59311.338	31.877
199.020	20.385	99.304	635.069	300.711	2.784	94.056	93.047	10.763	15.076	59259.057	30.808
199.219	20.372	99.598	634.724	300.696	2.759	93.384	92.379	10.882	15.001	59261.030	31.268
199.420	20.487	99.662	633.514	300.706	2.721	92.135	91.178	10.304	15.001	59224.136	30.632
199.619	20.400	99.988	632.905	300.210	2.686	91.285	90.343	10.630	15.000	59136.004	31.323
199.821	20.449	100.117	631.215	299.434	2.660	90.564	89.648	10.263	14.774	59136.335	31.553
200.020	20.409	100.142	629.840	300.500	2.650	89.834	88.813	10.443	14.774	58899.349	30.407
200.220	20.506	100.385	628.914	299.435	2.609	88.976	88.003	10.234	14.806	58902.348	30.939
200.420	20.396	100.523	627.391	299.795	2.605	88.422	87.507	10.353	14.886	58896.050	30.139
200.620	20.387	100.536	626.512	300.217	2.558	87.838	86.879	10.238	14.886	58595.115	29.974
200.820	20.361	100.785	625.604	299.860	2.543	87.197	86.292	10.365	14.655	58595.632	30.303
201.021	20.377	100.917	624.055	299.265	2.515	86.868	86.082	10.332	14.622	58391.659	30.879
201.222	20.457	101.015	622.612	299.375	2.507	86.465	85.652	10.140	14.622	58272.939	30.660
201.421	20.395	101.047	621.346	299.585	2.507	86.076	85.280	10.099	14.546	58269.195	29.409
201.622	20.482	101.149	620.411	299.478	2.502	85.557	84.828	9.966	14.547	57954.854	29.552
201.822	20.465	101.318	618.563	299.179	2.476	85.383	84.529	9.909	14.553	57953.763	29.305
202.022	20.521	101.329	617.414	299.564	2.465	85.344	84.536	10.198	14.623	57906.899	30.479
202.222	20.415	101.518	616.708	299.486	2.469	85.083	84.314	9.888	14.623	57650.418	30.183
202.422	20.490	101.419	615.836	299.108	2.454	84.835	84.035	10.112	14.417	57652.205	29.947
202.622	20.509	101.377	614.977	299.855	2.430	84.625	83.754	9.983	14.320	57409.639	30.215
202.822	20.411	101.528	614.467	300.226	2.434	84.483	83.601	10.070	14.321	57386.596	29.365
203.022	20.496	101.604	613.520	299.927	2.443	84.530	83.685	10.386	14.358	57391.673	29.897
203.223	20.445	101.667	613.408	299.918	2.449	84.261	83.465	10.260	14.358	57157.419	29.387
203.423	20.486	101.652	613.299	299.730	2.453	84.105	83.370	10.161	14.358	57156.676	29.777
203.623	20.523	101.714	613.580	299.495	2.448	83.982	83.213	10.142	14.698	57064.630	29.311
203.822	20.457	101.790	613.872	299.380	2.427	83.868	83.082	10.259	14.698	56961.313	29.086
204.023	20.484	101.921	613.838	299.614	2.399	84.020	83.219	10.467	14.712	56959.583	28.861
204.223	20.430	101.895	614.016	299.585	2.392	84.142	83.273	10.541	14.736	56799.514	30.117
204.423	20.392	102.012	613.868	300.029	2.405	83.788	83.009	10.332	14.736	56796.926	29.524
204.624	20.398	102.235	613.930	298.982	2.427	83.855	83.043	10.327	14.955	56795.010	29.963
204.825	20.398	102.130	613.386	299.194	2.419	83.938	83.114	10.244	14.963	56677.624	30.089
205.024	20.508	102.227	613.290	299.562	2.417	83.769	83.001	10.142	14.963	56678.667	29.245
205.224	20.431	102.115	612.915	299.980	2.384	84.021	83.195	10.112	14.850	56595.031	28.844
205.425	20.414	102.186	612.474	300.197	2.404	83.985	83.177	9.975	14.849	56572.618	28.965
205.625	20.435	102.504	612.082	300.145	2.421	84.057	83.222	10.265	14.864	56575.949	29.886
205.824	20.526	102.255	611.816	300.313	2.424	84.035	83.260	10.139	14.925	56505.322	29.190
206.025	20.533	102.363	611.718	300.113	2.434	83.900	83.184	9.971	14.925	56503.778	28.960
206.225	20.547	102.266	611.328	300.796	2.415	84.013	83.139	10.363	14.735	56490.250	29.261
206.426	20.459	102.372	611.392	300.173	2.422	84.334	83.557	10.261	14.698	56453.874	28.877
206.626	20.442	102.597	611.213	301.284	2.430	84.565	83.817	10.548	14.698	56455.879	30.024
206.827	20.519	102.389	612.338	300.807	2.439	84.808	83.973	10.496	14.850	56434.016	29.788
207.026	20.470	102.609	613.927	300.414	2.437	85.172	84.357	10.676	14.849	56429.609	29.634
207.226	20.536	102.440	614.490	300.694	2.423	85.780	84.997	10.485	14.841	56433.272	29.821
207.426	20.540	102.572	614.783	300.887	2.440	86.383	85.572	10.779	14.736	56465.056	30.303
207.626	20.446	102.733	615.549	300.759	2.460	86.832	85.992	10.894	14.736	56458.984	30.259
207.826	20.439	102.655	616.998	301.121	2.490	87.363	86.651	10.885	14.861	56542.079	29.810
208.026	20.528	102.809	617.951	301.335	2.481	87.819	87.100	10.957	14.925	56574.995	30.791
208.227	20.414	102.898	619.400	301.432	2.488	88.331	87.507	10.879	14.925	56570.960	30.523
208.427	20.467	103.052	620.869	302.049	2.522	88.715	87.883	10.795	15.038	56752.610	31.043
208.626	20.472	103.107	621.998	301.779	2.525	89.020	88.234	10.878	15.038	56752.917	31.433
208.826	20.518	103.094	623.306	301.957	2.537	89.250	88.400	10.833	15.039	56806.985	30.533
209.026	20.477	103.152	624.190	302.438	2.555	89.754	88.908	10.901	15.038	56945.571	30.566
209.227	20.422	103.224	625.774	302.175	2.561	90.130	89.241	10.538	15.039	56949.161	31.351
209.427	20.519	103.254	626.134	302.365	2.582	90.330	89.447	10.775	15.029	57140.036	30.616
209.626	20.439	103.508	626.389	302.825	2.621	90.342	89.462	10.924	15.000	57154.670	31.581
209.828	20.447	103.475	627.472	303.226	2.602	90.384	89.596	11.061	15.000	57151.032	30.484
210.027	20.564	103.634	627.873	303.406	2.602	90.514	89.721	11.008	15.235	57348.666	30.725
210.227	20.427	103.738	627.876	303.498	2.611	90.634	89.888	11.023	15.265	57347.009	31.098
210.427	20.487	103.765	628.156	303.722	2.609	90.697	89.866	11.025	15.266	57426.376	30.835
210.628	20.531	103.835	627.979	303.247	2.612	90.811	90.007	11.011	15.152	57519.012	30.802
210.828	20.456	103.956	628.425	303.730	2.609	90.844	90.103	10.942	15.152	57514.274	30.117
211.028	20.450	104.121	628.869	304.397	2.603	91.039	90.250	10.855	15.137	57650.709	30.813
211.228	20.509	104.305	629.419	304.093	2.620	90.881	90.081	11.197	15.001	57657.000	31.400
211.428	20.441	104.349	630.054	303.984	2.604	91.053	90.331	11.013	15.001	57658.277	30.890
211.628	20.438	104.379	630.139	304.532	2.599	91.216	90.428	11.056	15.050	57767.100	31.170
211.828	20.436	104.568	631.218	304.147	2.624	91.284	90.472	11.308	15.076	57769.033	31.318
212.030	20.575	104.657	631.086	304.465	2.639	91.338	90.556	11.060	15.076	57853.049	31.394
212.229	20.448	104.789	631.666	304.256	2.619	91.392	90.621	10.974	15.114	57870.482	31.488
212.430	20.522	104.808	631.649	304.580	2.645	91.578	90.710	10.801	15.115	57870.749	31.356
212.630	20.462	104.869	632.297	304.516	2.638	91.519	90.677	11.128	15.114	57948.895	30.884
212.832	20.445	104.990	632.900	304.748	2.629	91.609	90.810	11.109	14.660	57949.890	31.016
213.032	20.381	105.134	632.860	304.188	2.653	91.524	90.687	11.167	14.660	57977.623	31.383
213.232	20.390	105.281	632.904	304.950	2.660	91.531	90.760	11.088	14.986	58025.012	31.592
213.433	20.395	105.211	632.712	304.196	2.648	91.573	90.682	10.934	15.228	58024.382	30.632
213.633	20.458	105.351	632.194	304.330	2.650	91.375	90.650	10.943	15.229	58078.862	30.967
213.834	20.337	105.394	632.176	304.888	2.648	91.417	90.590	10.764	15.489	58074.083	30.391
214.034	20.367	105.535	632.678	304.781	2.671	91.262	90.481	10.874	15.493	58075.288	30.517
214.234	20.381	105.655	632.337	304.743	2.647	91.268	90.535	10.962	15.493	58111.325	30.912
214.434	20.510	105.718	632.079	304.402	2.628	91.364	90.493	11.211	15.530	58116.136	31.872
214.635	20.427	105.896	632.128	304.544	2.625	91.320	90.477	11.016	15.530	58127.763	31.904
214.834	20.389	105.821	632.387	305.025	2.629	91.363	90.530	11.084	15.417	58129.510	31.000
215.035	20.498	106.033	633.000	304.934	2.626	91.358	90.459	11.149	15.152	58133.625	31.839
215.235	20.409	106.092	633.212	305.291	2.619	91.469	90.619	10.844	15.152	58149.675	31.279
215.436	20.404	106.068	633.175	304.624	2.638	91.489	90.635	10.805	15.218	58148.220	30.544
215.636	20.379	106.228	633.239	304.993	2.650	91.411	90.657	11.050	15.228	58153.451	31.362
215.836	20.545	106.252	633.058	304.641	2.632	91.478	90.654	10.940	15.229	58174.514	31.159
216.035	20.464	106.439	632.713	304.567	2.610	91.449	90.584	10.734	14.963	58168.126	30.857
216.236	20.410	106.535	633.123	304.904	2.617	91.461	90.600	10.747	14.963	58187.556	31.416
216.435	20.410	106.613	633.333	305.321	2.630	91.502	90.634	10.783	14.963	58187.952	31.526
216.635	20.461	106.643	632.810	304.352	2.629	91.539	90.636	10.680	14.963	58188.518	31.257
216.835	20.436	106.658	632.697	304.713	2.640	91.670	90.783	10.786	14.963	58202.166	30.495
217.035	20.468	106.746	632.403	305.086	2.647	91.466	90.563	10.732	14.864	58202.910	30.780
217.235	20.495	106.921	632.306	304.453	2.648	91.320	90.464	10.766	14.811	58212.297	31.608
217.437	20.517	106.869	632.428	304.387	2.640	91.189	90.424	10.624	14.812	58217.747	30.824
217.637	20.512	107.024	631.723	304.760	2.631	91.234	90.460	10.642	14.698	58219.283	31.872
217.838	20.483	107.149	631.857	304.316	2.635	91.126	90.348	10.665	14.698	58214.650	31.137
218.039	20.489	106.960	632.073	305.393	2.633	91.134	90.379	10.654	14.698	58214.416	30.243
218.238	20.410	107.127	632.360	305.298	2.643	91.187	90.385	10.644	14.774	58211.262	31.351
218.438	20.433	107.232	633.447	304.773	2.625	91.318	90.452	10.745	14.774	58208.610	30.539
218.638	20.432	107.198	633.651	304.690	2.622	91.355	90.512	10.994	14.737	58209.095	30.742
218.838	20.485	107.276	633.217	305.046	2.614	91.214	90.428	10.760	14.698	58208.344	30.424
219.039	20.533	107.343	634.703	304.753	2.621	91.393	90.544	10.850	14.698	58215.135	31.581
219.238	20.502	107.373	633.723	304.985	2.636	91.501	90.543	10.647	15.147	58213.931	30.950
219.439	20.471	107.346	633.845	304.346	2.637	91.477	90.586	10.921	15.152	58216.041	30.512
219.638	20.490	107.513	634.291	304.355	2.637	91.496	90.648	10.836	15.152	58214.860	30.413
219.839	20.517	107.620	634.414	304.509	2.652	91.543	90.640	10.938	15.493	58223.447	31.159
220.038	20.387	107.712	635.141	304.732	2.654	91.523	90.634	10.811	15.493	58223.326	30.632
220.240	20.522	107.711	634.687	304.386	2.647	91.602	90.659	10.870	15.358	58226.277	30.555
220.439	20.444	107.837	634.681	304.522	2.632	91.531	90.652	10.694	15.038	58236.683	31.296
220.639	20.475	107.946	635.101	304.384	2.627	91.489	90.609	10.861	15.039	58237.104	31.553
220.839	20.420	107.953	634.724	303.880	2.636	91.521	90.674	10.939	14.902	58233.287	30.671
221.039	20.458	107.951	634.227	304.643	2.635	91.463	90.588	10.861	14.887	58243.758	30.385
221.239	20.485	107.989	633.332	304.348	2.616	91.417	90.521	10.712	14.887	58246.798	31.745
221.439	20.503	108.001	633.633	304.072	2.627	91.450	90.546	10.938	15.001	58249.669	31.098
221.640	20.419	108.013	633.064	304.084	2.618	91.401	90.509	10.692	15.000	58247.114	30.627
221.839	20.344	108.080	632.969	304.502	2.646	91.221	90.370	11.150	15.008	58245.246	30.566
222.039	20.431	108.074	632.299	303.674	2.645	91.203	90.423	10.661	15.114	58241.995	30.468
222.239	20.412	108.333	631.955	304.276	2.641	91.025	90.292	10.470	15.114	58243.588	31.373
222.439	20.415	108.427	631.711	303.873	2.643	91.031	90.230	10.835	14.988	58241.810	30.978
222.639	20.470	108.441	631.542	304.002	2.660	91.086	90.243	10.876	14.925	58237.419	31.334
222.839	20.459	108.475	631.311	304.219	2.629	90.987	90.249	10.580	14.925	58236.796	31.411
223.039	20.547	108.566	630.508	304.207	2.622	91.145	90.320	10.852	15.114	58222.833	31.575
223.239	20.477	108.449	631.124	304.089	2.629	91.211	90.300	11.083	15.114	58218.426	30.150
223.439	20.465	108.575	630.464	304.361	2.643	91.017	90.248	10.714	15.114	58216.922	30.758
223.640	20.492	108.644	630.640	304.117	2.632	91.189	90.311	10.822	14.849	58212.912	31.532
223.839	20.416	108.757	630.657	304.432	2.623	91.226	90.373	10.917	14.849	58210.535	31.071
224.039	20.543	108.773	630.588	304.312	2.636	91.191	90.259	10.644	14.790	58209.128	31.680
224.241	20.425	108.887	631.243	303.790	2.631	91.250	90.371	10.614	14.698	58205.400	31.307
224.440	20.467	108.894	631.366	304.766	2.653	91.356	90.389	10.774	14.698	58207.090	31.477
224.640	20.394	108.934	630.475	304.388	2.641	91.386	90.467	10.890	15.029	58201.131	30.693
224.840	20.447	108.887	631.334	304.015	2.625	91.471	90.536	10.757	15.038	58201.956	30.863
225.040	20.431	108.929	631.391	304.243	2.639	91.394	90.551	10.797	15.038	58203.759	30.912
225.240	20.524	109.062	631.887	304.135	2.651	91.380	90.478	10.518	15.076	58214.836	31.751
225.441	20.539	109.072	631.689	304.261	2.646	91.321	90.436	10.908	15.076	58213.599	31.444
225.641	20.544	109.161	631.613	304.116	2.617	91.306	90.403	10.930	15.068	58219.275	31.548
225.840	20.505	109.208	632.060	303.943	2.639	91.402	90.448	10.661	15.039	58217.108	31.098
226.040	20.616	109.148	631.947	303.935	2.641	91.329	90.559	11.009	15.039	58216.979	30.270
226.240	20.494	109.275	631.936	304.257	2.628	91.435	90.619	10.820	15.008	58225.347	31.071
226.440	20.570	109.167	631.849	304.143	2.641	91.378	90.537	10.903	15.001	58222.800	30.353
226.640	20.501	109.255	631.024	304.026	2.631	91.429	90.519	10.918	15.001	58225.056	30.654
226.840	20.573	109.385	631.561	304.511	2.619	91.555	90.615	10.836	14.812	58238.616	31.235
227.040	20.423	109.443	630.765	304.129	2.620	91.469	90.647	10.476	14.811	58233.570	30.950
227.241	20.438	109.447	630.815	304.182	2.608	91.519	90.608	10.778	14.779	58246.345	30.753
227.441	20.483	109.446	630.702	303.785	2.615	91.584	90.604	10.742	14.546	58244.470	30.769
227.641	20.462	109.486	631.118	304.430	2.621	91.448	90.580	10.784	14.547	58244.971	30.528
227.842	20.473	109.660	631.256	304.188	2.620	91.620	90.742	10.669	14.960	58260.819	31.647
228.041	20.463	109.606	630.695	304.153	2.624	91.510	90.667	10.903	15.114	58258.167	30.945
228.242	20.499	109.573	631.040	304.104	2.619	91.512	90.585	11.019	15.114	58267.141	30.199
228.442	20.585	109.638	630.099	303.661	2.628	91.472	90.603	10.623	14.699	58272.632	30.819
228.642	20.443	109.747	629.689	303.729	2.619	91.434	90.602	10.874	14.698	58271.152	30.561
228.842	20.592	109.906	630.099	303.387	2.615	91.517	90.551	10.870	14.698	58281.768	31.784
229.043	20.513	109.873	629.721	304.174	2.642	91.448	90.562	10.748	14.585	58280.256	31.734
229.242	20.531	109.762	628.785	303.461	2.625	91.299	90.462	10.634	14.585	58281.057	30.703
229.442	20.522	109.811	628.806	303.538	2.641	91.243	90.462	10.467	14.756	58282.496	30.873
229.642	20.462	109.942	628.436	303.792	2.627	91.407	90.575	10.771	14.963	58278.299	31.351
229.843	20.546	109.824	628.053	303.969	2.646	91.250	90.480	10.564	14.964	58275.647	30.813
230.043	20.460	109.945	627.919	303.771	2.623	91.320	90.482	10.883	14.963	58273.157	30.303
230.243	20.423	110.001	628.565	304.086	2.633	91.328	90.546	10.916	14.963	58272.373	30.879
230.444	20.514	110.125	628.147	303.976	2.616	91.386	90.484	10.358	14.963	58271.702	31.466
230.644	20.420	110.100	628.330	303.913	2.612	91.369	90.481	10.986	14.925	58267.513	30.725
230.844	20.468	110.184	628.235	303.919	2.606	91.435	90.525	10.691	14.925	58269.308	31.663
231.044	20.442	110.257	628.101	303.865	2.632	91.403	90.497	10.571	14.934	58262.840	30.934
231.244	20.354	110.185	628.613	303.882	2.640	91.428	90.528	10.718	14.963	58264.271	30.928
231.444	20.373	110.253	627.977	303.988	2.628	91.397	90.567	10.655	14.963	58262.800	31.142
231.644	20.428	110.277	628.582	303.590	2.623	91.428	90.624	10.801	14.963	58260.172	30.572
231.844	20.452	110.276	627.956	303.433	2.629	91.431	90.551	10.948	14.964	58262.468	31.000
232.046	20.466	110.108	627.882	303.588	2.653	91.374	90.469	10.726	14.963	58262.654	30.671
232.245	20.364	110.352	628.552	303.304	2.651	91.420	90.514	10.561	14.735	58262.824	30.945
232.446	20.491	110.385	628.194	303.809	2.644	91.385	90.490	10.781	14.736	58261.005	31.839
232.646	20.473	110.462	627.689	302.808	2.653	91.471	90.501	10.680	14.742	58260.034	31.197
232.846	20.496	110.382	626.918	303.575	2.667	91.421	90.542	10.684	14.812	58258.433	30.786
233.046	20.404	110.480	627.563	303.117	2.654	91.259	90.437	10.670	14.811	58251.641	31.433
233.246	20.520	110.512	626.554	302.975	2.664	91.243	90.330	10.812	14.887	58253.081	31.038
233.446	20.446	110.513	626.459	303.415	2.657	91.226	90.320	10.785	14.925	58247.041	30.627
233.648	20.509	110.505	625.850	303.333	2.655	91.261	90.333	10.890	14.926	58246.936	30.780
233.848	20.468	110.625	625.314	303.568	2.678	91.173	90.264	10.868	14.926	58247.720	31.263
234.049	20.400	110.575	625.543	303.383	2.662	91.241	90.345	10.590	14.925	58230.061	30.479
234.249	20.461	110.559	624.863	302.987	2.650	91.090	90.210	10.780	14.926	58231.872	30.654
234.449	20.413	110.765	624.359	303.526	2.641	91.196	90.402	10.461	14.698	58232.899	31.312
234.650	20.490	110.690	624.087	303.073	2.655	91.270	90.311	10.432	14.699	58227.361	31.197
234.850	20.383	110.670	624.577	303.137	2.673	91.131	90.278	10.553	14.829	58222.105	30.446
235.050	20.418	110.676	624.081	303.757	2.665	91.305	90.394	10.596	15.000	58215.022	30.363
235.251	20.511	110.757	623.848	303.328	2.673	91.220	90.365	10.372	15.001	58216.866	30.967
235.450	20.423	110.901	623.576	302.946	2.637	91.205	90.438	10.450	14.853	58213.866	31.235
235.650	20.557	110.879	623.684	303.219	2.632	91.215	90.276	10.296	14.850	58206.322	31.553
235.850	20.422	110.799	624.102	303.050	2.647	91.355	90.421	10.546	14.849	58201.859	30.533
236.050	20.434	111.027	623.820	302.970	2.650	91.302	90.340	10.383	14.849	58203.047	31.334
236.251	20.391	110.921	624.193	303.643	2.654	91.190	90.277	10.431	14.850	58202.166	30.934
236.450	20.447	110.991	624.105	303.032	2.663	91.243	90.402	10.280	14.886	58199.894	30.446
236.650	20.409	111.087	623.934	303.025	2.641	91.201	90.306	10.365	15.000	58197.808	31.340
236.850	20.445	111.019	624.550	302.972	2.630	91.328	90.436	10.489	15.000	58199.684	31.570
237.051	20.432	111.076	624.366	302.734	2.655	91.253	90.321	10.348	15.092	58200.525	31.427
237.251	20.456	111.029	624.431	302.539	2.642	91.316	90.391	10.566	15.114	58203.880	31.526
237.451	20.504	110.991	624.783	302.588	2.662	91.371	90.452	10.686	15.115	58204.721	31.504
237.652	20.438	111.187	624.872	303.102	2.665	91.199	90.428	10.164	14.736	58207.535	30.989
237.851	20.403	111.146	624.871	302.570	2.661	91.196	90.441	10.470	14.736	58211.958	31.065
238.053	20.490	111.089	624.475	303.170	2.618	91.152	90.299	10.613	14.757	58212.944	30.928
238.253	20.396	111.180	625.093	302.465	2.629	91.127	90.353	10.477	14.886	58214.561	31.000
238.452	20.495	111.017	625.635	303.022	2.647	91.139	90.339	10.739	14.886	58217.504	30.588
238.653	20.496	111.137	626.411	302.985	2.642	91.009	90.159	10.770	14.864	58216.841	30.314
238.853	20.377	111.198	626.548	302.946	2.647	91.177	90.318	10.914	14.849	58217.141	30.775
239.052	20.473	111.245	626.417	303.334	2.629	91.249	90.300	10.738	14.850	58220.634	31.230
239.252	20.380	111.227	627.012	303.204	2.627	91.420	90.476	10.852	14.625	58213.712	30.769
239.453	20.478	111.209	626.678	302.897	2.639	91.274	90.430	10.726	14.623	58220.253	31.203
239.652	20.413	111.310	626.790	303.014	2.628	91.349	90.491	10.665	14.621	58217.181	31.087
239.852	20.511	111.343	626.325	302.470	2.620	91.355	90.428	10.607	14.698	58223.237	31.378
240.053	20.470	111.235	625.480	302.952	2.642	91.349	90.369	10.513	14.699	58223.383	31.131
240.254	20.464	111.396	626.170	302.440	2.645	91.383	90.492	10.695	14.714	58227.256	31.592
240.455	20.433	111.443	626.065	303.145	2.645	91.421	90.442	10.527	14.735	58229.099	31.526
240.654	20.467	111.448	624.853	303.039	2.658	91.342	90.502	10.334	14.737	58228.687	31.427
240.855	20.411	111.488	625.663	302.817	2.624	91.300	90.545	10.696	15.147	58230.328	31.005
241.054	20.440	111.536	625.436	302.409	2.647	91.516	90.578	10.636	15.190	58236.085	31.696
241.254	20.439	111.540	625.783	302.730	2.649	91.516	90.609	10.819	15.190	58234.929	31.515
241.455	20.549	111.562	625.371	302.706	2.643	91.454	90.518	11.022	15.190	58244.631	31.038
241.654	20.492	111.621	625.491	302.509	2.646	91.354	90.461	10.991	15.190	58244.550	30.961
241.854	20.425	111.575	625.169	303.217	2.635	91.400	90.406	10.716	15.115	58243.370	30.473
242.054	20.491	111.529	625.279	302.778	2.651	91.321	90.453	10.854	14.774	58250.760	30.654
242.254	20.493	111.608	624.600	303.102	2.643	91.275	90.354	10.838	14.774	58249.499	30.550
242.454	20.479	111.684	624.714	302.359	2.653	91.279	90.419	10.827	14.951	58251.771	31.109
242.654	20.423	111.743	624.462	303.197	2.645	91.378	90.431	10.517	15.000	58246.548	31.394
242.855	20.430	111.660	623.568	303.679	2.647	91.277	90.448	10.360	15.000	58247.639	30.583
243.055	20.392	111.751	622.997	302.877	2.663	91.284	90.437	10.320	14.887	58243.136	30.742
243.255	20.405	111.841	623.969	302.888	2.645	91.331	90.466	10.655	14.887	58242.707	31.011
243.454	20.488	111.816	623.242	302.964	2.647	91.447	90.448	10.327	14.887	58247.170	31.148
243.654	20.443	111.902	623.480	302.423	2.677	91.408	90.530	10.261	15.114	58246.087	31.778
243.854	20.441	111.852	623.335	303.004	2.641	91.348	90.490	10.782	15.114	58242.190	30.720
244.054	20.474	111.912	623.513	302.444	2.665	91.323	90.418	10.427	15.081	58248.367	31.548
244.254	20.483	111.819	623.562	302.650	2.661	91.445	90.504	10.437	15.038	58245.133	30.243
244.454	20.426	111.908	623.976	302.339	2.657	91.383	90.435	10.702	15.038	58243.491	30.484
244.655	20.528	111.885	624.291	302.828	2.649	91.402	90.449	10.561	15.001	58245.666	30.703
244.855	20.442	111.990	624.759	302.967	2.649	91.453	90.554	10.524	15.000	58245.052	31.104
245.055	20.434	111.983	624.142	302.812	2.658	91.464	90.492	10.358	15.000	58249.378	31.586
245.256	20.505	111.956	624.519	302.734	2.656	91.272	90.419	10.705	15.038	58247.615	30.199
245.457	20.426	111.998	624.869	302.658	2.652	91.388	90.563	10.585	15.038	58247.607	31.219
245.657	20.457	111.904	625.008	302.622	2.665	91.480	90.512	10.321	15.022	58246.038	30.435
245.856	20.453	111.956	624.546	302.984	2.662	91.396	90.553	10.543	14.963	58244.947	29.859
246.056	20.497	112.042	625.186	301.819	2.653	91.434	90.600	10.408	14.963	58254.884	31.323
246.257	20.443	111.960	625.288	302.860	2.636	91.365	90.553	10.493	14.902	58250.315	30.374
246.457	20.407	112.147	625.389	302.370	2.648	91.495	90.587	10.635	14.886	58251.310	31.109
246.657	20.403	112.048	625.363	302.740	2.637	91.479	90.583	10.086	14.887	58253.105	30.857
246.857	20.510	111.964	625.831	302.541	2.632	91.527	90.554	10.411	14.736	58254.997	30.544
247.058	20.480	112.122	625.255	302.517	2.648	91.535	90.611	10.603	14.736	58254.277	30.045
247.257	20.531	112.034	626.170	302.575	2.644	91.448	90.576	10.681	14.738	58258.935	30.385
247.457	20.393	112.033	625.773	302.413	2.647	91.448	90.577	10.296	14.811	58254.528	30.353
247.659	20.356	112.141	626.246	302.143	2.641	91.458	90.599	10.368	14.811	58258.474	30.780
247.858	20.376	112.199	626.210	302.517	2.646	91.589	90.678	10.219	14.914	58258.571	30.928
248.060	20.463	112.094	626.004	302.571	2.648	91.512	90.636	10.455	15.001	58261.013	30.424
248.259	20.349	112.172	626.423	303.023	2.652	91.530	90.658	10.546	15.000	58264.376	30.583
248.461	20.355	112.186	626.080	302.430	2.652	91.526	90.639	10.381	14.963	58265.621	30.736
248.661	20.385	112.202	625.625	302.851	2.655	91.446	90.507	10.209	14.963	58269.430	30.473
248.861	20.481	112.210	626.192	302.422	2.644	91.555	90.677	10.524	14.963	58270.311	30.281
249.060	20.529	112.246	626.520	303.090	2.645	91.508	90.639	10.567	14.850	58274.378	30.440
249.260	20.438	112.214	626.121	302.821	2.650	91.559	90.622	10.470	14.850	58272.842	30.007
249.460	20.420	112.335	625.981	302.421	2.633	91.562	90.638	10.483	14.790	58272.389	30.363
249.660	20.497	112.228	626.214	302.734	2.642	91.307	90.513	10.346	14.698	58275.162	29.711
249.860	20.527	112.290	625.786	302.324	2.642	91.243	90.468	10.471	14.698	58279.908	30.742
250.060	20.421	112.246	625.761	302.338	2.646	91.298	90.487	10.359	14.698	58275.009	30.204
250.260	20.409	112.434	625.810	302.642	2.610	91.312	90.446	10.522	14.698	58274.402	31.181
250.460	20.411	112.335	625.470	302.353	2.650	91.394	90.519	10.572	14.698	58270.141	30.204
250.660	20.512	112.289	625.651	302.280	2.659	91.598	90.687	10.647	14.736	58275.227	30.950
250.860	20.507	112.306	625.512	302.919	2.653	91.558	90.640	10.477	14.736	58273.780	30.418
251.060	20.507	112.386	625.449	302.594	2.659	91.483	90.635	10.466	14.726	58274.766	30.385
251.260	20.430	112.526	625.032	302.526	2.668	91.631	90.703	10.649	14.661	58278.332	31.455
251.460	20.460	112.356	625.397	302.518	2.675	91.386	90.568	10.558	14.661	58276.407	30.144
251.660	20.482	112.445	624.948	302.273	2.673	91.308	90.528	10.535	14.688	58281.008	30.632
251.861	20.481	112.429	624.583	302.475	2.668	91.250	90.473	10.551	14.698	58286.199	31.027
252.060	20.418	112.516	624.825	302.235	2.651	91.210	90.486	10.557	14.698	58281.000	31.367
252.262	20.480	112.496	624.765	302.573	2.653	91.345	90.523	10.937	14.774	58282.674	30.594
252.461	20.450	112.586	625.026	302.645	2.650	91.371	90.434	10.520	14.774	58274.758	30.945
252.661	20.501	112.661	625.666	302.959	2.663	91.508	90.613	10.877	14.774	58276.957	30.791
252.862	20.521	112.558	625.809	303.106	2.649	91.356	90.491	11.031	14.736	58276.440	30.544
253.063	20.430	112.655	626.251	303.132	2.662	91.342	90.414	10.914	14.736	58272.397	31.142
253.263	20.403	112.573	626.124	303.098	2.651	91.387	90.511	10.566	14.777	58271.799	30.303
253.464	20.502	112.571	625.240	303.314	2.653	91.344	90.433	10.836	14.812	58271.217	30.188
253.663	20.516	112.609	625.579	302.883	2.662	91.354	90.497	11.022	14.812	58272.381	30.435
253.864	20.447	112.576	625.511	302.933	2.660	91.347	90.418	10.918	14.360	58266.381	29.821
254.063	20.464	112.633	625.394	302.563	2.657	91.432	90.476	10.815	14.358	58264.772	30.188
254.263	20.407	112.649	625.131	302.343	2.655	91.387	90.463	11.013	14.357	58264.384	29.859
254.463	20.386	112.710	624.879	302.752	2.627	91.235	90.383	10.767	14.924	58260.932	30.501
254.663	20.395	112.727	624.289	303.180	2.640	91.195	90.369	10.719	14.925	58261.069	30.303
254.864	20.383	112.772	624.311	302.563	2.650	91.311	90.348	10.544	14.849	58262.977	30.407
255.063	20.439	112.692	622.922	302.360	2.656	91.356	90.504	10.562	14.699	58261.579	30.599
255.264	20.375	112.826	622.819	302.510	2.667	91.207	90.246	10.793	14.697	58259.913	30.654
255.464	20.462	112.672	622.482	302.865	2.659	91.062	90.234	10.881	14.876	58261.797	29.843
255.664	20.494	112.731	621.522	302.337	2.662	91.020	90.222	10.741	14.887	58261.668	30.139
255.864	20.372	112.846	621.229	302.741	2.659	90.969	90.201	10.845	14.887	58260.503	30.736
256.065	20.460	112.773	620.742	302.844	2.664	91.055	90.252	11.082	14.812	58252.119	30.111
256.264	20.400	112.881	620.079	302.708	2.655	91.081	90.278	11.038	14.811	58249.378	30.539
256.464	20.410	112.763	620.395	302.758	2.661	91.046	90.219	10.696	14.820	58245.084	30.298
256.664	20.458	112.818	620.602	303.008	2.656	90.915	90.098	11.063	14.887	58240.112	29.387
256.865	20.456	112.787	620.117	302.978	2.655	90.970	90.229	10.859	14.887	58240.063	29.349
257.064	20.371	112.979	620.562	303.054	2.644	91.080	90.230	10.843	14.795	58234.379	30.155
257.265	20.377	112.941	620.730	303.002	2.648	90.993	90.284	10.636	14.774	58233.853	30.226
257.465	20.373	113.022	620.177	303.391	2.641	91.067	90.289	10.867	14.774	58232.907	30.106
257.665	20.523	113.019	621.259	303.153	2.644	91.220	90.364	10.719	14.396	58235.010	30.764
257.865	20.383	113.038	621.756	303.531	2.674	91.258	90.428	10.884	14.395	58230.579	30.353
258.066	20.381	113.045	622.259	303.411	2.652	91.323	90.453	10.744	14.395	58232.495	29.925
258.267	20.407	113.102	623.206	303.202	2.644	91.480	90.527	10.672	14.320	58237.039	29.969
258.466	20.462	113.142	622.532	303.650	2.667	91.463	90.533	10.853	14.320	58241.349	30.830
258.667	20.493	113.080	623.351	303.268	2.684	91.474	90.575	10.828	14.513	58256.727	30.758
258.867	20.426	113.172	624.026	303.255	2.683	91.351	90.465	10.438	14.735	58253.339	30.819
259.067	20.441	113.107	623.949	303.212	2.682	91.337	90.548	10.714	14.736	58252.393	29.991
259.268	20.397	113.181	624.616	303.940	2.669	91.396	90.539	10.755	14.698	58267.521	30.769
259.467	20.492	113.110	625.487	303.111	2.653	91.382	90.656	10.716	14.698	58268.031	30.703
259.668	20.464	113.119	625.730	303.311	2.665	91.666	90.891	10.950	14.698	58277.329	31.054
259.867	20.402	113.184	626.545	303.515	2.660	92.113	91.330	10.845	14.773	58271.540	30.698
260.067	20.394	113.148	626.682	303.530	2.680	92.227	91.466	10.757	14.774	58274.152	30.407
260.267	20.446	113.123	627.355	303.388	2.680	92.861	92.151	10.739	14.813	58311.151	31.499
260.467	20.460	113.266	628.983	303.643	2.691	93.795	93.007	11.197	14.925	58309.202	31.723
260.669	20.436	113.183	629.384	304.073	2.701	94.918	94.050	11.267	14.925	58350.317	31.246
260.870	20.474	113.236	630.130	303.947	2.710	96.325	95.408	11.574	15.080	58399.760	31.033
261.069	20.546	113.344	631.310	304.189	2.752	97.622	96.689	11.476	15.114	58404.054	32.069
261.270	20.536	113.241	632.692	304.602	2.784	99.100	98.117	11.941	15.114	58622.274	32.414
261.470	20.542	113.412	633.997	303.887	2.828	100.608	99.611	12.274	15.606	58628.459	32.875
261.670	20.538	113.405	635.552	304.127	2.856	102.320	101.424	12.388	15.606	58644.210	32.672
261.870	20.428	113.549	637.104	304.497	2.908	104.477	103.499	12.490	15.612	58992.397	33.610
262.071	20.600	113.540	638.261	304.970	2.998	106.136	105.182	12.642	15.758	58992.009	33.286
262.271	20.487	113.848	639.774	304.658	3.063	107.493	106.592	12.845	15.757	59416.693	34.712
262.471	20.477	113.851	641.320	305.605	3.118	108.817	107.769	13.296	15.939	59513.525	33.901
262.672	20.599	113.960	642.352	305.517	3.153	109.917	108.826	13.437	16.061	59516.937	34.948
262.871	20.547	114.140	643.161	305.839	3.181	110.725	109.727	13.043	16.061	60125.357	35.529
263.071	20.472	114.356	644.731	306.139	3.220	111.604	110.522	13.305	15.985	60120.004	35.277
263.271	20.485	114.372	645.926	306.018	3.226	112.286	111.231	13.204	15.985	60322.635	35.239
263.471	20.535	114.471	646.264	306.179	3.257	113.059	112.013	13.257	15.985	60724.357	35.562
263.671	20.486	114.799	647.108	306.401	3.261	114.049	112.809	13.430	16.324	60725.731	36.785
263.871	20.550	114.935	648.469	306.313	3.279	114.756	113.531	13.457	16.325	61282.306	37.240
264.071	20.577	115.185	649.267	306.835	3.325	115.040	113.884	13.119	16.355	61287.238	36.977
264.271	20.478	115.400	650.402	307.329	3.368	115.496	114.313	13.471	16.400	61280.180	36.708
264.472	20.575	115.564	651.692	307.213	3.379	116.007	114.772	13.616	16.401	61807.825	36.939
264.671	20.556	115.621	653.347	307.654	3.391	116.187	114.975	13.681	16.292	61805.504	36.763
264.871	20.399	115.580	653.669	307.564	3.385	116.791	115.559	13.944	16.287	62086.517	37.536
265.071	20.528	116.168	654.749	307.798	3.395	117.424	116.135	13.768	16.288	62256.992	38.249
265.272	20.511	115.875	654.428	307.733	3.412	117.875	116.516	13.805	16.553	62257.089	37.662
265.471	20.601	116.627	654.613	308.244	3.420	118.165	116.796	13.611	16.553	62653.361	37.690
265.671	20.521	116.425	654.636	308.151	3.450	118.238	116.867	14.220	16.603	62651.420	37.712
265.871	20.520	116.376	654.053	308.654	3.451	118.446	117.097	14.041	16.855	62713.258	37.399
266.072	20.427	116.664	653.609	308.468	3.471	118.615	117.301	14.240	16.855	63000.464	38.293
266.272	20.445	116.746	653.018	308.384	3.492	118.716	117.425	14.177	16.802	63003.860	38.578
266.474	20.507	117.922	652.695	308.652	3.475	119.132	117.687	14.143	16.780	63276.132	37.893
266.673	20.356	117.460	652.481	308.197	3.484	118.969	117.717	13.906	16.779	63293.961	38.682
266.873	20.531	117.533	652.719	308.517	3.491	119.157	117.823	13.731	16.705	63296.419	37.893
267.075	20.535	117.774	652.912	309.620	3.508	119.292	117.895	13.820	16.704	63534.368	38.266
267.275	20.572	118.171	653.270	309.172	3.507	119.075	117.802	13.949	16.704	63532.759	37.284
267.476	20.472	118.326	653.843	310.060	3.484	119.565	118.240	14.150	16.515	63626.583	38.112
267.676	20.427	118.552	654.714	309.830	3.495	120.058	118.842	14.287	16.514	63718.653	38.309
267.875	20.531	118.684	655.885	309.832	3.511	120.661	119.312	14.198	16.515	63722.615	39.066
268.075	20.468	118.775	657.268	309.620	3.529	121.187	119.874	14.696	16.514	63898.903	39.774
268.275	20.455	118.845	658.285	310.577	3.537	121.847	120.455	14.809	16.515	63895.160	38.205
268.475	20.386	119.043	659.353	310.605	3.559	122.383	121.028	15.091	16.736	63910.401	39.494
268.675	20.491	119.261	659.901	310.467	3.555	123.221	121.948	14.838	16.742	64096.594	39.626
268.875	20.448	119.432	661.420	310.514	3.575	124.181	122.914	14.833	16.742	64096.247	40.454
269.075	20.477	119.686	662.980	310.971	3.595	125.214	123.977	15.570	16.969	64294.124	41.479
269.276	20.450	119.805	663.798	311.392	3.648	126.221	124.934	15.801	16.969	64339.184	40.898
269.475	20.411	120.115	664.753	312.290	3.694	127.103	125.739	16.108	16.975	64339.686	42.148
269.675	20.445	120.242	665.917	312.184	3.710	127.280	126.106	15.816	17.083	64647.712	41.578
269.875	20.428	120.570	666.434	312.205	3.733	127.820	126.540	15.940	17.083	64649.758	42.461
270.076	20.425	120.727	667.312	312.321	3.754	128.182	126.945	15.785	17.102	64763.715	42.192
270.275	20.388	120.989	667.809	312.928	3.771	128.409	127.108	15.828	17.120	64964.907	41.452
270.475	20.358	121.237	668.477	312.530	3.778	128.475	127.140	16.360	17.120	64965.077	42.411
270.675	20.433	121.409	668.344	312.679	3.780	128.598	127.288	16.361	16.786	65247.399	41.764
270.876	20.326	121.609	668.710	312.893	3.779	128.640	127.367	16.349	16.779	65249.113	42.274
271.077	20.326	121.882	670.126	313.104	3.780	128.493	127.174	16.356	16.779	65251.369	42.581
271.278	20.337	122.027	670.050	313.833	3.793	128.548	127.095	16.204	16.817	65482.365	41.825
271.478	20.425	122.257	669.909	313.009	3.781	128.531	127.149	16.219	16.817	65486.262	42.428
271.677	20.414	122.493	670.251	313.390	3.787	128.260	126.879	16.098	16.793	65597.203	41.682
271.879	20.332	122.797	670.017	313.599	3.789	128.222	126.884	15.983	16.628	65658.540	42.845
272.078	20.304	122.931	670.532	313.715	3.773	128.300	126.922	15.986	16.628	65654.085	41.501
272.279	20.315	123.112	671.035	314.344	3.774	128.214	126.910	15.859	16.775	65779.944	42.625
272.479	20.306	123.395	670.877	313.690	3.772	128.036	126.682	16.280	16.854	65777.915	42.916
272.679	20.335	123.507	670.343	314.218	3.760	128.063	126.735	16.202	16.855	65794.692	41.836
272.880	20.274	123.842	670.724	314.074	3.757	127.998	126.670	16.194	16.780	65861.996	42.378
273.079	20.321	123.957	670.685	313.820	3.756	127.978	126.659	16.326	16.781	65862.505	42.258
273.281	20.274	124.099	669.936	314.099	3.758	127.835	126.600	15.979	16.779	65921.287	42.450
273.480	20.254	124.281	669.175	314.593	3.762	127.955	126.654	16.000	16.666	65915.773	41.918
273.681	20.255	124.599	670.059	314.670	3.751	128.085	126.772	15.881	16.665	65916.864	42.543
273.881	20.252	124.687	670.230	314.945	3.735	128.365	127.023	16.410	16.734	65955.473	41.616
274.081	20.268	124.794	670.163	315.215	3.768	128.753	127.434	16.208	16.893	65955.343	42.280
274.281	20.251	125.134	670.838	315.318	3.747	129.264	127.869	16.335	16.893	65985.850	43.376
274.481	20.344	125.155	671.110	315.884	3.755	129.454	128.114	16.557	16.959	66008.247	42.280
274.681	20.278	125.498	671.397	315.013	3.794	129.720	128.322	16.546	16.969	66011.166	43.382
274.881	20.285	125.492	671.999	315.762	3.804	129.808	128.586	16.649	16.969	66090.121	42.664
275.081	20.226	125.695	673.601	316.147	3.799	130.096	128.750	16.810	16.968	66089.466	42.784
275.282	20.240	125.928	673.442	316.016	3.816	130.301	129.046	16.220	16.969	66099.306	42.784
275.482	20.342	126.129	674.405	315.983	3.808	131.409	130.063	16.419	16.968	66196.826	44.309
275.683	20.225	126.186	676.110	316.276	3.839	132.045	130.907	16.627	16.968	66191.158	43.634
275.882	20.197	126.454	677.455	316.567	3.862	132.672	131.721	17.157	16.968	66303.102	44.111
276.082	20.290	126.471	679.327	317.113	3.870	133.652	132.413	16.643	17.052	66329.145	44.512
276.282	20.233	126.753	681.415	317.045	3.910	134.119	132.917	16.530	17.158	66326.227	44.698
276.482	20.325	126.900	683.820	316.707	3.953	134.298	133.104	17.207	17.159	66527.216	44.446
276.683	20.230	127.079	686.495	317.410	3.945	134.614	133.532	16.962	17.121	66520.974	44.089
276.882	20.309	127.278	688.636	317.157	3.949	135.132	133.797	17.061	17.121	66606.487	44.972
277.083	20.244	127.551	690.396	316.936	3.970	135.612	134.187	16.959	17.120	66729.209	44.923
277.283	20.273	127.720	691.707	317.608	3.967	135.526	134.634	17.653	17.424	66732.751	45.087
277.483	20.301	127.780	693.297	318.357	3.994	135.815	134.520	17.159	17.422	66927.490	44.309
277.684	20.221	127.991	694.794	318.502	4.011	135.778	134.588	16.734	17.421	66925.671	44.353
277.883	20.284	128.175	695.406	318.124	4.024	135.909	134.742	16.562	17.387	66933.514	44.676
278.084	20.292	128.444	697.238	318.700	4.015	135.843	134.629	16.772	17.386	67100.577	44.824
278.284	20.318	128.582	697.573	318.841	4.016	135.927	134.704	17.035	17.516	67098.063	44.364
278.484	20.216	128.865	699.111	318.769	4.018	135.886	134.666	16.786	17.575	67189.098	44.912
278.685	20.268	128.983	700.618	318.707	3.982	135.931	134.666	16.951	17.575	67232.493	45.181
278.885	20.328	129.173	701.446	318.663	4.013	135.916	134.717	17.090	17.388	67231.684	45.000
279.085	20.273	129.216	703.044	319.299	4.004	135.825	134.663	17.150	17.388	67325.274	44.320
279.287	20.264	129.685	704.430	319.363	4.001	135.875	134.628	17.074	17.387	67326.859	45.131
279.486	20.226	129.750	704.846	319.780	4.003	135.720	134.829	17.542	17.310	67344.978	44.599
279.686	20.263	129.869	706.467	319.753	4.023	135.913	134.708	17.145	17.310	67404.916	44.484
279.887	20.325	129.993	707.985	319.512	4.029	135.847	134.615	16.996	17.258	67405.587	44.331
280.087	20.269	130.214	709.865	319.731	4.022	135.813	134.626	16.823	17.159	67463.650	44.599
280.287	20.251	130.415	711.285	319.947	4.028	135.717	134.697	17.432	17.160	67465.954	45.455
280.489	20.252	130.550	712.933	320.348	4.023	135.877	134.567	17.144	17.194	67464.491	45.005
280.690	20.325	130.726	714.275	320.357	4.032	135.721	134.548	17.187	17.196	67510.004	45.230
280.890	20.288	130.730	715.357	320.489	4.015	135.664	134.431	17.210	17.196	67503.390	44.545
281.091	20.233	130.974	716.295	320.480	4.002	135.615	134.403	17.203	17.234	67519.674	44.665
281.290	20.356	131.142	717.264	320.573	3.985	135.451	134.274	17.163	17.235	67533.355	44.528
281.491	20.265	131.332	718.194	321.524	4.003	135.738	134.440	17.564	17.220	67528.463	44.358
281.691	20.304	131.505	718.752	321.080	4.012	135.437	134.165	16.989	17.121	67545.710	45.384
281.892	20.299	131.659	719.173	321.382	3.994	135.199	134.016	17.012	17.120	67545.483	45.444
282.092	20.295	131.628	719.518	321.305	3.996	135.056	134.171	17.352	17.051	67544.287	44.353
282.292	20.219	131.989	720.727	321.061	3.981	136.004	134.779	17.447	17.007	67541.974	45.219
282.494	20.308	131.971	722.393	321.559	3.967	137.945	136.758	17.317	17.007	67541.699	44.210
282.693	20.327	132.085	724.793	321.500	4.039	139.944	138.827	17.354	17.423	67579.693	45.597
282.894	20.262	132.425	727.177	322.153	4.093	142.482	141.563	18.425	17.425	67579.491	46.541
283.094	20.319	132.602	730.262	322.173	4.197	144.885	143.725	18.318	17.425	67581.917	45.905
283.296	20.369	132.586	733.017	323.440	4.289	146.554	145.292	18.735	18.219	67824.167	46.595
283.497	20.362	132.944	735.402	323.583	4.369	148.240	147.011	18.817	18.219	67826.811	47.857
283.696	20.310	133.120	737.061	324.001	4.438	149.522	148.395	19.459	18.409	68015.349	47.681
283.897	20.242	133.319	738.541	324.308	4.494	150.555	149.375	19.528	18.899	68223.770	48.586
284.097	20.308	133.560	739.366	324.923	4.500	150.893	149.606	20.143	18.900	68225.541	48.323
284.298	20.260	133.966	738.717	324.442	4.522	151.641	150.393	19.791	19.027	68660.566	50.001
284.498	20.193	134.181	739.158	325.035	4.573	152.333	151.127	19.792	19.051	68660.510	49.546
284.698	20.336	134.308	738.643	325.058	4.574	152.824	151.541	20.026	19.052	68684.790	49.655
284.899	20.306	134.619	737.942	325.452	4.616	152.761	151.435	20.195	19.279	69067.292	49.793
285.098	20.206	134.767	737.709	325.604	4.644	149.012	147.490	19.442	19.278	69065.885	47.791
285.299	20.200	135.102	736.431	325.711	4.539	145.718	144.315	18.552	19.278	69303.293	46.765
285.498	20.248	135.308	734.993	325.814	4.422	143.317	141.929	18.334	18.711	69362.940	45.998
285.700	20.249	135.638	733.044	325.530	4.328	141.126	139.890	17.970	18.711	69368.147	46.744
285.900	20.272	135.645	731.005	325.714	4.244	139.587	138.448	17.475	18.324	69307.166	45.318
286.103	20.249	135.920	729.047	324.722	4.181	138.198	136.914	17.473	17.840	69311.524	46.173
286.303	20.259	136.135	727.992	324.720	4.133	137.082	135.943	17.092	17.841	69213.980	45.663
286.503	20.229	136.197	727.257	325.761	4.083	136.090	134.847	17.094	17.283	69054.113	44.725
286.703	20.252	136.432	726.715	325.222	4.063	135.315	134.112	17.230	17.273	69056.547	45.367
286.904	20.260	136.358	726.568	324.907	4.012	134.596	133.434	17.082	17.273	68735.762	44.665
287.103	20.302	136.539	726.061	324.941	3.987	133.964	132.724	17.207	17.045	68732.835	44.605
287.303	20.154	136.595	724.801	325.007	3.974	133.417	132.152	17.120	17.045	68730.029	44.407
287.503	20.170	136.705	725.152	324.908	3.945	133.196	131.883	17.143	17.044	68399.533	44.698
287.703	20.261	136.740	723.606	324.809	3.937	133.008	131.752	17.105	17.046	68400.770	44.391
287.903	20.194	136.838	723.210	324.991	3.916	132.735	131.557	16.885	17.045	68189.762	44.402
288.103	20.249	136.954	722.815	324.563	3.928	132.389	131.187	17.189	16.484	68097.911	45.016
288.304	20.224	136.875	722.221	325.125	3.922	132.141	131.023	17.415	16.212	68092.501	43.738
288.504	20.195	136.977	721.668	324.958	3.885	132.222	130.885	16.989	16.212	67837.694	43.947
288.704	20.331	137.020	720.878	324.739	3.885	132.047	130.708	16.807	16.439	67841.761	45.192
288.906	20.302	137.071	719.742	324.647	3.891	131.968	130.746	17.003	16.439	67790.030	44.577
289.106	20.288	137.155	718.683	324.553	3.877	132.307	131.109	17.051	16.439	67625.101	45.065
289.305	20.280	137.213	718.569	324.864	3.867	133.137	131.942	17.161	16.439	67620.954	43.936
289.505	20.235	137.193	717.510	324.643	3.888	133.775	132.513	17.127	16.438	67466.779	44.462
289.705	20.318	137.271	716.880	324.228	3.922	134.264	133.069	17.399	16.604	67466.439	45.225
289.906	20.350	137.153	716.888	324.885	3.927	134.714	133.633	17.386	16.818	67463.625	44.254
290.105	20.349	137.316	716.645	324.824	3.961	135.125	133.927	17.484	16.818	67423.772	44.078
290.305	20.361	137.431	716.432	324.693	3.953	135.444	134.274	17.381	17.148	67426.254	45.038
290.505	20.403	137.431	717.465	324.623	3.978	135.783	134.591	17.419	17.159	67439.539	45.422
290.706	20.322	137.405	717.671	325.442	3.998	136.011	134.865	17.427	17.159	67443.848	44.276
290.907	20.370	137.514	717.838	325.239	4.025	136.226	134.950	17.502	17.159	67445.886	44.687
291.106	20.298	137.564	717.531	325.069	4.036	136.326	135.059	17.489	17.158	67497.738	45.186
291.307	20.398	137.587	717.549	324.883	4.016	136.379	135.065	17.431	17.174	67501.684	44.835
291.507	20.307	137.611	717.365	325.551	4.005	136.497	135.307	16.996	17.311	67503.762	44.780
291.707	20.244	137.729	717.790	325.896	4.040	136.543	135.285	17.389	17.310	67556.132	45.038
291.907	20.305	137.612	717.745	326.104	4.038	136.543	135.379	17.727	17.368	67556.471	44.555
292.107	20.285	137.799	718.281	325.780	4.052	136.764	135.451	17.312	17.386	67603.238	45.515
292.309	20.299	137.958	717.830	325.939	4.050	136.755	135.517	17.309	17.386	67614.857	45.652
292.509	20.259	137.958	718.088	326.526	4.049	136.619	135.448	17.263	17.461	67610.127	45.214
292.709	20.261	138.059	717.843	326.089	4.061	136.760	135.548	17.029	17.462	67655.123	45.844
292.909	20.335	138.114	718.139	326.403	4.058	136.907	135.578	17.314	17.462	67658.414	45.735
293.110	20.313	138.178	718.978	326.559	4.051	136.892	135.655	17.246	17.689	67674.019	45.992
293.311	20.265	138.162	720.040	326.638	4.056	136.871	135.615	17.308	17.688	67694.063	45.575
293.511	20.314	138.344	721.492	326.705	4.064	136.853	135.689	17.159	17.596	67695.793	45.877
293.712	20.323	138.385	722.005	326.657	4.069	136.947	135.722	17.255	17.424	67726.106	45.883
293.911	20.383	138.292	722.983	326.574	4.070	137.000	135.699	17.272	17.424	67726.704	44.764
294.111	20.383	138.270	723.969	326.605	4.053	136.931	135.902	17.590	17.319	67723.373	44.534
294.311	20.305	138.383	725.563	327.121	4.074	137.025	135.804	17.281	17.310	67753.386	44.786
294.511	20.380	138.585	726.495	327.222	4.069	136.867	135.720	17.191	17.311	67759.507	45.093
294.711	20.330	138.679	728.336	327.407	4.063	136.953	135.658	17.426	17.386	67780.214	45.910
294.911	20.407	138.480	729.258	327.110	4.063	136.912	135.648	17.412	17.386	67784.669	44.742
295.111	20.397	138.633	730.169	327.189	4.064	136.886	135.604	17.366	17.389	67782.761	44.725
295.311	20.289	138.865	731.210	327.398	4.048	136.820	135.643	17.140	17.423	67800.485	45.252
295.512	20.345	138.827	731.860	327.533	4.058	136.995	135.693	17.164	17.423	67802.166	45.855
295.713	20.401	138.953	732.480	327.675	4.060	136.851	135.640	17.224	17.424	67805.150	45.093
295.913	20.407	138.985	733.712	327.265	4.058	136.826	135.567	17.266	17.424	67814.683	45.115
296.113	20.389	138.968	734.205	328.006	4.049	136.835	135.625	17.363	17.424	67813.284	44.599
296.314	20.315	139.183	734.561	328.068	4.061	136.780	135.595	17.351	17.687	67823.884	45.707
296.514	20.373	139.068	735.444	328.317	4.038	136.668	135.860	17.918	17.688	67822.340	44.605
296.715	20.400	139.171	735.599	328.191	4.053	136.987	135.791	17.335	17.689	67821.984	44.989
296.915	20.440	139.260	736.927	328.356	4.055	136.947	135.783	17.223	17.613	67829.964	44.654
297.115	20.457	139.277	737.716	328.162	4.082	136.871	135.697	17.279	17.613	67832.770	44.808
297.315	20.419	139.326	738.002	328.184	4.071	136.806	135.708	17.305	17.634	67839.513	44.830
297.516	20.438	139.461	739.381	328.272	4.079	136.865	135.580	17.096	17.689	67849.685	45.762
297.718	20.376	139.571	739.120	328.190	4.053	136.829	135.603	17.184	17.689	67847.801	45.811
297.917	20.472	139.541	739.939	328.457	4.048	136.889	135.660	17.194	17.623	67850.461	45.318
298.119	20.381	139.579	740.694	328.603	4.058	136.647	135.663	17.791	17.614	67845.804	44.912
298.318	20.337	139.611	741.251	328.882	4.061	137.030	135.791	16.967	17.613	67846.645	45.181
298.518	20.489	139.638	743.411	328.727	4.060	136.817	135.636	17.202	17.387	67852.369	44.983
298.718	20.453	139.737	743.523	328.338	4.071	136.862	135.662	17.444	17.386	67855.280	45.839
298.918	20.384	139.747	744.100	328.926	4.067	136.946	135.708	17.179	17.386	67854.472	44.676
299.118	20.407	139.725	744.202	329.411	4.058	136.909	135.755	17.526	17.272	67856.865	44.391
299.318	20.386	139.949	744.495	329.447	4.054	136.768	135.605	17.490	17.272	67856.210	45.362
299.518	20.474	139.865	744.048	329.548	4.043	136.692	135.735	17.560	17.273	67856.558	44.649
299.719	20.438	139.971	744.609	329.366	4.056	136.724	135.713	17.685	17.272	67859.161	45.334
299.918	20.387	140.074	746.150	329.395	4.051	136.872	135.605	17.390	17.272	67856.501	45.817
300.118	20.478	140.138	747.121	329.678	4.056	136.755	135.577	17.585	17.623	67860.034	45.872
300.319	20.385	140.115	747.944	329.715	4.058	136.729	135.544	17.291	17.651	67856.347	45.307
300.520	20.378	140.178	747.549	329.664	4.045	136.812	135.705	17.773	17.651	67852.766	45.998
300.719	20.460	140.119	747.795	330.597	4.063	136.807	135.576	17.126	17.993	67850.631	44.983
300.919	20.480	140.304	748.266	329.754	4.050	136.823	135.550	17.146	17.993	67854.844	45.992
301.120	20.446	140.183	747.429	330.600	4.053	136.623	135.508	17.363	17.993	67846.394	44.709
301.319	20.495	140.407	746.995	329.487	4.050	136.594	135.494	17.222	17.993	67851.609	46.053
301.519	20.425	140.319	746.406	330.648	4.047	136.691	135.436	17.287	17.993	67843.168	44.786
301.719	20.343	140.518	746.223	329.602	4.061	136.733	135.543	17.680	18.048	67843.871	45.153
301.919	20.426	140.456	745.600	330.220	4.040	136.724	135.444	17.474	18.105	67843.524	45.137
302.120	20.475	140.482	745.080	330.608	4.038	136.668	135.389	17.274	18.106	67839.465	45.016
302.319	20.393	140.646	744.972	330.349	4.018	136.698	135.411	17.221	17.842	67837.799	46.129
302.520	20.487	140.618	744.058	329.795	4.031	136.614	135.383	17.238	17.841	67840.257	45.570
302.720	20.405	140.628	743.726	330.196	4.027	136.706	135.506	17.545	17.840	67832.584	44.545
302.920	20.388	140.771	742.732	330.362	4.034	136.615	135.367	17.750	17.803	67837.500	45.954
303.121	20.374	140.755	741.600	330.105	4.031	136.602	135.367	17.326	17.803	67826.019	45.087
303.320	20.447	140.694	740.796	329.539	4.042	136.617	135.349	17.418	17.826	67831.776	45.592
303.520	20.424	140.887	739.795	330.009	4.034	136.510	135.357	17.510	17.917	67833.037	46.009
303.721	20.446	140.936	739.704	329.705	4.030	136.564	135.326	17.089	17.917	67831.565	45.745
303.921	20.414	140.981	738.666	329.900	4.056	136.495	135.240	17.170	17.886	67829.487	45.713
304.121	20.456	140.810	738.579	330.044	4.032	136.472	135.220	17.474	17.879	67824.248	44.972
304.321	20.489	140.996	738.921	330.330	4.028	136.385	135.168	17.864	17.879	67823.585	45.285
304.522	20.409	141.028	738.543	329.991	4.029	136.625	135.311	17.835	17.992	67824.620	45.521
304.721	20.386	141.039	737.791	329.654	4.022	136.496	135.274	17.775	17.993	67811.715	44.528
304.921	20.387	141.000	736.937	330.044	4.049	136.610	135.375	17.733	17.992	67811.093	44.583
305.121	20.440	141.210	735.211	329.672	4.052	136.610	135.332	17.279	17.916	67811.950	45.011
305.322	20.449	141.161	734.325	329.829	4.046	136.538	135.282	17.152	17.916	67814.036	45.767
305.522	20.431	141.210	733.675	330.020	4.036	136.520	135.209	17.183	17.895	67810.527	44.764
305.722	20.459	141.312	733.246	330.088	4.025	136.472	135.219	17.504	17.879	67811.416	44.391
305.923	20.475	141.287	732.913	330.417	4.048	136.619	135.387	17.724	17.879	67813.429	45.312
306.122	20.383	141.335	732.659	330.325	4.042	136.491	135.222	17.312	17.992	67809.031	45.389
306.322	20.490	141.414	731.999	330.306	4.056	136.422	135.093	17.337	17.993	67813.017	45.833
306.522	20.402	141.458	731.502	330.056	4.059	136.367	135.094	17.485	17.992	67810.794	46.058
306.722	20.498	141.394	731.066	330.197	4.048	136.384	135.158	17.884	18.105	67811.133	45.438
306.922	20.392	141.436	730.301	329.982	4.041	136.453	135.199	17.387	18.105	67806.250	45.861
307.122	20.375	141.540	728.846	330.390	4.061	136.531	135.255	17.302	18.083	67803.686	44.912
307.322	20.484	141.625	727.895	330.149	4.055	136.425	135.048	17.341	17.993	67800.719	46.047
307.524	20.427	141.571	727.529	330.138	4.055	136.279	135.045	17.235	17.993	67794.598	44.967
307.724	20.458	141.575	726.737	330.141	4.058	136.336	134.988	17.530	17.993	67799.336	45.674
307.923	20.461	141.576	726.651	330.271	4.055	136.281	135.112	17.709	17.993	67788.186	45.230
308.124	20.381	141.727	725.975	329.937	4.049	136.377	135.114	17.511	17.993	67788.397	46.234
308.324	20.413	141.684	725.692	330.293	4.050	136.314	134.934	17.257	18.143	67780.691	44.901
308.523	20.385	141.677	725.803	330.319	4.039	136.458	135.225	17.485	18.143	67778.435	44.643
308.723	20.492	141.790	724.963	329.881	4.057	136.371	135.154	17.030	18.143	67784.208	46.294
308.924	20.488	141.771	725.459	330.816	4.061	136.285	134.989	17.007	18.031	67779.551	46.168
309.123	20.503	141.707	726.012	330.004	4.050	136.253	135.270	17.904	18.031	67779.575	45.395
309.323	20.391	141.934	726.903	330.394	4.050	136.318	135.066	17.227	18.009	67777.481	46.091
309.523	20.483	141.769	726.719	330.271	4.038	136.231	135.009	17.304	17.955	67777.797	45.493
309.723	20.474	141.841	727.320	330.428	4.040	136.278	135.047	17.185	17.955	67775.508	45.038
309.923	20.423	141.871	728.000	330.320	4.060	136.299	135.046	17.337	18.071	67774.481	45.543
310.123	20.440	141.768	728.320	330.906	4.020	136.233	135.039	17.077	18.105	67771.191	44.917
310.323	20.384	141.932	729.008	330.474	4.001	136.351	135.090	17.031	18.105	67772.856	45.164
310.523	20.440	141.892	729.481	330.517	4.023	136.181	135.024	17.691	18.220	67774.999	45.011
310.723	20.384	142.040	729.535	330.590	4.017	136.347	135.045	17.268	18.220	67774.449	45.614
310.923	20.459	142.084	729.882	330.236	4.033	136.354	135.102	17.562	18.219	67777.247	45.756
311.123	20.405	142.170	730.159	330.415	4.024	136.370	135.148	17.606	17.879	67775.444	45.992
311.324	20.414	142.155	730.550	330.712	4.025	136.470	135.268	17.756	17.878	67772.703	45.499
311.524	20.418	142.225	729.398	330.261	4.030	136.441	135.180	17.488	17.807	67783.602	46.107
311.724	20.406	142.125	729.748	330.354	4.046	136.418	135.290	17.722	17.690	67780.384	44.868
311.923	20.417	142.154	729.197	330.407	4.044	136.394	135.144	17.672	17.690	67784.742	46.036
312.123	20.427	142.108	728.963	330.606	4.029	136.312	135.129	17.253	17.895	67791.105	45.104
312.323	20.459	142.122	728.260	330.211	4.026	136.260	135.064	17.599	17.917	67792.043	45.471
312.523	20.396	142.117	728.362	330.544	4.034	136.322	134.985	17.441	17.917	67790.968	44.506
312.723	20.356	142.144	727.448	330.058	4.032	136.346	135.010	17.081	18.219	67791.590	44.945
312.924	20.430	142.401	726.950	329.957	4.014	136.299	135.080	17.038	18.220	67796.312	46.151
313.124	20.364	142.325	726.905	330.639	4.024	136.270	134.958	17.547	18.219	67790.620	45.740
313.325	20.400	142.254	726.966	330.794	4.022	136.338	135.077	17.292	18.144	67792.512	46.025
313.525	20.442	142.281	726.552	330.509	4.025	136.422	135.204	17.633	18.143	67794.720	45.745
313.727	20.467	142.414	726.625	331.027	4.017	136.417	135.108	17.676	18.197	67796.296	45.488
313.926	20.437	142.342	726.263	331.036	4.003	136.560	135.341	17.678	18.260	67792.965	44.632
314.127	20.386	142.411	726.141	330.946	4.013	136.528	135.288	17.755	18.258	67799.919	44.939
314.326	20.494	142.459	725.513	330.082	4.017	136.528	135.380	17.516	18.110	67804.738	45.477
314.526	20.376	142.427	724.903	330.688	4.021	136.521	135.259	17.966	18.105	67798.997	44.895
314.726	20.462	142.620	724.288	330.424	4.024	136.554	135.277	17.905	18.105	67813.308	45.965
314.926	20.488	142.502	723.714	330.162	4.025	136.466	135.175	17.754	17.955	67811.141	45.000
315.127	20.484	142.564	722.361	330.749	4.023	136.449	135.222	17.866	17.955	67812.451	45.351
315.327	20.377	142.529	721.707	330.017	4.036	136.336	135.023	17.675	17.950	67808.198	44.572
315.527	20.460	142.626	720.767	329.717	4.023	136.334	135.032	17.490	17.917	67813.615	45.663
315.729	20.479	142.679	720.011	329.968	4.001	136.380	135.066	17.113	17.917	67812.847	45.976
315.928	20.399	142.758	720.121	330.319	4.027	136.267	134.959	17.380	18.005	67809.492	45.784
316.129	20.438	142.727	719.554	330.358	4.030	136.293	134.910	17.052	18.068	67808.885	46.266
316.328	20.492	142.687	718.778	330.142	4.017	136.201	134.979	17.648	18.069	67802.821	45.126
316.529	20.416	142.699	718.959	329.981	4.019	136.316	135.161	17.569	17.918	67800.929	44.682
316.728	20.493	142.716	718.464	330.476	4.024	136.387	135.114	17.705	17.917	67797.428	45.022
316.930	20.427	142.804	718.110	330.339	4.039	136.365	135.120	17.817	17.916	67797.032	45.438
317.129	20.430	142.686	717.866	330.473	4.043	136.450	135.195	17.642	18.143	67794.259	44.660
317.329	20.529	142.738	717.252	330.000	4.041	136.582	135.268	17.876	18.144	67798.253	45.257
317.530	20.420	142.895	717.269	330.388	4.041	136.581	135.326	17.789	18.097	67794.881	45.230
317.730	20.436	142.900	716.441	330.303	4.038	136.589	135.372	17.643	17.917	67802.910	45.691
317.929	20.474	142.758	715.550	329.555	4.052	136.601	135.257	17.722	17.917	67802.126	44.599
318.130	20.415	142.833	715.011	329.845	4.054	136.513	135.307	17.711	17.975	67799.555	44.188
318.330	20.444	142.774	714.132	330.288	4.043	136.352	135.274	17.568	17.993	67807.729	44.715
318.529	20.453	142.865	713.796	330.328	4.030	136.554	135.189	17.472	17.993	67807.147	44.824
318.730	20.466	142.906	712.923	329.704	4.029	136.441	135.194	17.677	17.955	67811.424	45.065
318.930	20.473	142.884	712.274	329.997	4.038	136.370	135.031	17.961	17.955	67811.505	44.939
319.130	20.447	143.038	711.823	330.121	4.038	136.304	134.951	17.170	17.951	67812.726	45.883
319.330	20.528	142.977	711.209	329.851	4.013	136.243	134.935	17.200	17.879	67808.053	45.405
319.530	20.549	143.049	711.663	329.797	4.037	136.089	134.767	17.328	17.879	67806.581	45.170
319.731	20.447	143.022	711.816	330.007	3.995	136.488	135.291	17.523	17.860	67806.217	45.729
319.930	20.496	142.948	712.141	330.473	3.949	138.968	137.809	17.631	17.841	67798.390	45.515
320.130	20.561	143.042	712.531	330.939	3.911	146.598	145.705	18.404	17.841	67797.178	48.482
320.332	20.573	143.190	715.604	330.920	4.232	154.210	153.052	19.667	18.580	67899.282	51.904
320.532	20.458	143.169	719.612	331.691	4.513	160.490	159.453	20.968	18.598	68000.593	54.744
320.733	20.543	143.351	723.614	331.912	4.750	165.735	164.570	22.167	18.599	68005.881	57.135
320.933	20.438	143.562	727.735	332.853	4.971	170.206	169.011	22.776	22.593	68858.888	59.778
321.133	20.530	143.711	732.304	333.547	5.066	173.876	172.445	23.341	22.611	68862.057	61.665
321.334	20.464	143.978	735.663	334.196	5.301	177.907	176.433	23.554	22.612	68926.871	61.171
321.535	20.420	144.376	738.892	334.300	5.448	180.869	179.137	24.096	22.913	70026.074	64.374
321.734	20.508	144.603	741.926	334.437	5.543	183.031	181.441	24.378	22.915	70029.122	64.220
321.936	20.431	145.077	745.499	334.741	5.638	184.677	183.051	24.467	22.946	71080.685	65.657
322.136	20.493	145.370	748.859	335.355	5.657	185.951	184.041	24.804	23.633	71217.994	65.981
322.335	20.363	145.875	751.671	335.849	5.695	187.018	185.088	24.944	23.632	71215.333	67.028
322.537	20.314	146.251	754.821	335.705	5.773	187.953	185.979	25.149	23.635	72277.472	67.472
322.736	20.401	146.674	756.324	335.617	5.817	188.789	186.615	24.898	23.671	72282.833	68.202
322.936	20.296	147.161	759.136	336.039	5.851	188.575	186.753	24.739	23.670	72606.205	67.741
323.136	20.317	147.586	761.259	336.288	5.860	188.756	186.873	24.926	23.671	73176.219	67.763
323.336	20.347	147.908	762.941	336.454	5.873	189.082	187.040	24.791	23.672	73178.167	67.642
323.537	20.373	148.171	764.316	336.636	5.879	189.013	187.145	25.126	23.671	73871.817	67.686
323.737	20.305	148.649	766.240	337.054	5.865	188.923	187.077	24.923	23.667	73878.107	67.878
323.938	20.324	149.099	768.279	337.359	5.865	188.846	187.125	25.085	23.596	73879.619	67.686
324.137	20.301	149.566	769.641	337.433	5.861	189.557	187.540	25.311	23.595	74418.010	68.684
324.337	20.341	149.862	771.121	337.134	5.879	189.401	187.455	25.264	23.585	74418.236	68.070
324.537	20.228	150.254	771.979	337.692	5.881	189.476	187.485	25.153	23.521	74690.783	67.203
324.739	20.236	150.678	773.505	338.037	5.892	189.399	187.508	25.246	23.521	74830.372	68.042
324.939	20.132	151.123	774.976	337.757	5.872	189.784	187.766	25.012	23.456	74831.277	68.202
325.138	20.169	151.507	775.574	337.400	5.901	189.855	187.806	25.154	23.331	75152.135	67.988
325.338	20.120	151.935	776.760	338.243	5.885	189.617	187.589	24.890	23.331	75153.219	68.404
325.538	20.110	152.166	778.106	337.979	5.881	189.576	187.576	25.243	23.365	75207.861	67.938
325.738	20.199	152.569	778.963	338.303	5.884	189.682	187.688	25.193	23.407	75409.029	69.150
325.938	20.096	152.944	779.829	338.028	5.888	189.813	187.564	25.040	23.406	75403.450	68.218
326.139	20.082	153.161	780.340	337.864	5.891	189.522	187.432	24.997	23.449	75581.436	67.368
326.339	20.065	153.635	780.983	338.285	5.890	189.168	187.281	25.130	23.482	75584.533	67.741
326.539	20.168	153.928	781.548	337.704	5.870	189.194	187.189	25.321	23.482	75588.835	67.730
326.739	20.050	154.240	781.289	338.666	5.851	189.499	187.354	24.964	23.540	75712.834	67.489
326.939	20.000	154.577	782.223	338.824	5.875	189.248	187.180	24.869	23.557	75712.478	67.648
327.139	20.082	154.793	782.469	338.423	5.855	188.925	187.040	24.588	23.558	75767.023	67.236
327.339	20.078	155.044	782.591	338.684	5.850	188.955	186.928	24.893	23.451	75815.480	67.247
327.539	20.050	155.425	782.934	339.136	5.841	188.800	187.064	24.941	23.406	75811.728	67.675
327.740	20.171	155.671	783.973	339.265	5.837	188.796	186.800	25.143	23.407	75881.426	67.900
327.939	20.084	156.076	784.534	339.440	5.852	188.818	186.756	25.179	23.406	75880.568	67.944
328.139	20.030	156.298	785.276	339.690	5.838	188.502	186.563	25.416	23.406	75883.204	68.136
328.339	20.207	156.533	785.079	340.098	5.829	188.449	186.455	25.466	23.407	75924.626	68.119
328.540	20.139	156.673	784.923	340.255	5.852	188.425	186.435	25.214	23.220	75924.335	67.154
328.740	20.027	157.062	784.586	339.695	5.841	188.083	186.321	25.271	23.217	75945.139	68.892
328.939	20.070	157.252	784.598	340.382	5.842	188.266	186.361	25.032	23.217	75942.625	67.280
329.140	20.139	157.549	784.453	340.397	5.819	188.474	186.465	25.468	23.217	75949.206	68.514
329.339	20.115	157.738	784.882	340.386	5.844	188.466	186.579	25.222	23.217	75960.979	67.834
329.539	20.066	157.968	785.509	339.891	5.855	188.498	186.522	24.838	23.217	75957.389	67.785
329.739	20.190	158.302	785.216	340.516	5.863	188.442	186.474	25.012	23.217	75972.105	67.971
329.939	19.999	158.521	785.813	340.838	5.845	188.355	186.435	25.087	23.217	75976.859	68.542
330.139	20.084	158.754	785.468	340.656	5.834	188.366	186.382	25.114	23.217	75981.233	68.618
330.340	20.167	158.895	785.922	341.027	5.810	188.459	186.368	25.145	23.104	75984.953	68.223
330.539	20.104	159.013	786.075	341.324	5.816	188.641	186.559	25.007	23.105	75984.581	68.426
330.739	20.009	159.372	786.719	341.286	5.835	188.367	186.512	24.928	23.104	75983.829	68.925
330.939	20.009	159.559	787.547	340.651	5.850	188.380	186.509	25.133	23.142	75996.127	68.465
331.140	20.065	159.759	788.148	341.531	5.828	188.543	186.509	25.180	23.143	75999.919	68.706
331.339	19.977	159.995	788.985	341.011	5.793	188.453	186.576	25.282	23.142	75999.781	68.421
331.539	20.120	160.039	789.799	341.366	5.792	188.714	186.664	24.907	23.067	76008.611	68.574
331.739	19.982	160.243	790.597	341.884	5.812	188.493	186.453	24.788	23.067	76002.959	68.207
331.939	19.973	160.497	791.284	341.877	5.817	188.246	186.412	25.226	23.068	76013.592	68.152
332.140	20.047	160.724	791.761	341.598	5.829	188.294	186.414	25.342	23.141	76016.599	68.832
332.340	20.116	160.864	791.924	341.988	5.851	188.295	186.323	25.027	23.143	76017.214	68.372
332.540	20.006	160.995	792.227	342.257	5.856	188.173	186.274	24.967	23.151	76010.511	67.686
332.741	20.008	161.298	792.680	342.122	5.850	187.914	186.224	25.167	23.217	76015.710	68.542
332.941	20.000	161.421	792.981	342.058	5.848	188.007	185.962	24.680	23.216	76010.390	68.498
333.141	20.091	161.566	792.832	341.692	5.827	187.845	185.918	25.158	23.241	76012.929	68.421
333.340	20.068	161.658	792.288	342.689	5.823	188.178	186.270	24.975	23.293	76009.039	67.927
333.540	20.062	161.906	791.953	341.853	5.842	188.356	186.412	24.823	23.292	76003.703	68.882
333.740	19.991	162.005	792.549	342.836	5.841	187.943	186.029	25.555	23.305	75996.992	68.256
333.941	20.016	162.278	791.443	342.445	5.813	187.829	185.923	25.234	23.331	75998.488	68.169
334.141	20.082	162.316	790.089	343.029	5.819	187.758	185.824	24.885	23.331	75997.332	67.297
334.340	19.967	162.522	789.151	343.048	5.837	187.625	185.808	25.144	23.188	75998.148	67.576
334.541	20.032	162.638	789.012	342.742	5.823	187.670	185.918	24.686	23.066	75986.497	67.730
334.741	20.050	162.926	789.137	343.261	5.835	187.943	186.059	25.220	23.066	75990.046	68.849
334.941	20.026	162.867	789.267	343.633	5.837	188.294	186.370	24.849	23.093	75982.996	68.136
335.141	20.125	163.073	789.243	342.426	5.802	188.482	186.505	24.946	23.105	75988.187	68.668
335.341	20.047	163.266	789.475	343.533	5.849	188.283	186.305	25.129	23.103	75986.618	68.278
335.541	20.112	163.417	789.817	342.948	5.838	188.134	186.212	24.815	22.996	76000.946	68.821
335.741	20.048	163.597	789.200	342.402	5.842	187.935	185.987	25.562	22.990	76005.296	68.328
335.943	20.023	163.637	789.022	343.045	5.797	187.878	186.023	25.101	22.991	75999.127	67.631
336.143	20.013	163.741	787.597	343.580	5.811	187.952	186.093	25.247	23.028	75998.577	67.840
336.344	20.013	163.773	788.038	343.812	5.828	187.654	185.810	25.060	23.028	75999.361	68.075
336.545	20.030	164.087	787.946	343.281	5.813	187.543	185.856	24.719	23.028	75999.175	68.585
336.744	20.070	164.153	787.965	343.825	5.802	187.699	185.970	24.720	23.104	75998.278	67.938
336.944	20.032	164.303	788.748	343.442	5.828	187.687	185.866	24.812	23.103	75997.049	68.410
337.144	20.080	164.298	788.578	343.624	5.824	187.771	186.050	25.264	23.104	75991.081	68.311
337.344	20.026	164.525	789.054	343.604	5.795	188.207	186.192	25.109	23.142	75990.863	68.295
337.544	19.987	164.560	789.941	343.874	5.817	188.461	186.369	25.126	23.142	75986.974	67.779
337.744	20.074	164.788	790.320	342.997	5.812	188.351	186.464	24.793	23.142	75997.857	69.249
337.946	20.061	164.841	790.522	343.520	5.810	188.299	186.363	24.986	23.143	75996.669	68.662
338.146	20.073	165.029	790.906	343.384	5.821	188.449	186.435	25.047	23.142	76009.250	68.744
338.345	19.980	165.034	791.647	343.537	5.833	188.176	186.209	24.699	23.142	76008.732	67.357
338.545	20.021	165.092	791.636	343.649	5.832	187.850	185.946	24.862	23.067	76008.425	67.472
338.745	20.125	165.309	791.661	343.073	5.797	187.764	185.895	24.539	23.067	76019.607	68.947
338.945	20.014	165.461	791.516	343.776	5.809	187.719	185.910	24.731	23.070	76019.534	69.106
339.145	20.062	165.478	790.811	343.948	5.810	187.674	185.838	24.806	23.105	76017.489	69.178
339.345	19.982	165.644	791.201	344.014	5.789	187.681	185.833	24.757	23.104	76004.439	68.569
339.545	20.026	165.568	790.682	344.480	5.788	187.597	185.712	24.802	23.104	76004.043	68.081
339.745	20.006	165.825	791.018	344.694	5.790	187.561	185.596	24.740	23.104	75993.822	68.410
339.945	20.047	165.847	791.024	344.469	5.824	187.447	185.617	25.007	23.104	75995.512	68.426
340.145	19.968	166.056	791.477	344.326	5.808	187.637	185.824	24.772	23.104	75993.515	68.838
340.345	19.944	165.985	791.661	344.524	5.847	188.004	186.077	25.099	23.104	75976.196	68.174
340.545	19.956	166.071	791.916	344.726	5.841	188.118	186.193	24.795	23.104	75976.527	68.443
340.745	19.970	166.133	791.376	344.385	5.854	187.967	186.012	24.670	23.163	75981.929	67.988
340.945	19.941	166.411	791.790	344.452	5.837	187.806	185.843	25.203	23.217	75987.855	67.565
341.145	20.094	166.498	791.760	344.468	5.866	187.517	185.812	25.075	23.217	75992.569	69.518
341.345	19.950	166.557	791.265	344.639	5.843	187.535	185.676	25.211	23.170	75984.936	67.571
341.546	19.939	166.641	790.022	344.478	5.826	187.522	185.709	24.940	23.141	75984.379	68.481
341.746	20.011	166.596	790.205	344.705	5.827	187.422	185.662	24.858	23.142	75985.705	67.373
341.946	20.028	166.838	789.454	344.298	5.831	187.597	185.642	24.884	23.114	75980.392	68.838
342.146	20.048	166.846	789.435	344.659	5.825	187.469	185.606	24.850	23.104	75977.199	67.675
342.346	19.954	166.939	789.742	345.228	5.828	187.394	185.561	24.858	23.104	75966.154	67.960
342.547	19.932	167.101	789.577	345.489	5.836	187.254	185.502	25.336	23.070	75965.822	68.563
342.746	20.035	167.184	790.267	345.335	5.806	187.398	185.513	24.689	23.067	75969.938	68.783
342.946	19.937	167.360	789.745	345.128	5.824	187.331	185.485	25.265	23.067	75956.354	67.894
343.148	19.927	167.408	789.809	345.433	5.828	187.257	185.381	24.866	22.953	75958.747	68.925
343.347	20.002	167.465	789.719	345.383	5.832	187.289	185.447	24.823	22.952	75956.306	69.424
343.548	20.052	167.461	789.847	345.750	5.823	187.101	185.392	24.991	22.952	75949.716	68.021
343.748	20.036	167.503	789.972	345.548	5.820	187.327	185.366	24.800	22.991	75949.975	68.136
343.948	20.018	167.590	790.176	345.460	5.815	187.252	185.421	25.352	22.991	75940.886	67.692
344.148	20.037	167.751	790.520	345.759	5.828	187.095	185.284	24.813	22.991	75946.862	69.216
344.347	20.076	167.738	790.002	346.002	5.821	187.240	185.422	25.079	23.029	75944.671	67.856
344.547	19.909	167.893	790.296	345.540	5.822	187.291	185.580	24.743	23.029	75935.631	68.871
344.747	20.043	167.836	790.563	345.738	5.814	187.842	185.861	24.646	23.029	75939.649	68.289
344.947	19.990	167.983	791.113	346.194	5.862	187.675	185.960	24.742	23.066	75937.418	68.361
345.147	19.945	168.091	791.684	346.674	5.850	187.574	185.955	24.524	23.066	75939.682	68.860
345.347	20.022	168.120	792.754	346.178	5.817	187.719	185.915	24.614	23.067	75942.601	68.350
345.547	20.052	168.326	792.926	345.974	5.840	187.432	185.693	24.927	23.067	75961.650	69.013
345.747	19.958	168.423	793.714	346.681	5.833	187.526	185.732	24.935	23.066	75958.602	68.712
345.947	20.028	168.328	794.222	346.918	5.830	187.343	185.464	24.638	23.067	75960.874	68.333
346.147	20.078	168.393	794.118	347.162	5.820	187.353	185.621	25.038	23.067	75964.092	68.010
346.348	19.951	168.608	794.968	347.380	5.796	187.571	185.684	24.922	23.067	75962.709	69.057
346.548	19.961	168.556	794.849	347.032	5.816	187.683	185.710	25.279	23.067	75960.785	68.426
346.747	19.934	168.672	794.891	346.819	5.824	187.391	185.617	24.909	23.066	75961.359	68.163
346.947	20.051	168.682	794.027	346.951	5.833	187.367	185.586	25.066	23.067	75965.232	68.914
347.147	19.926	168.777	793.856	346.921	5.839	187.429	185.469	24.566	23.055	75963.874	68.399
347.348	19.945	168.779	793.329	346.583	5.817	187.407	185.540	24.996	23.028	75963.704	68.108
347.547	20.029	168.834	793.050	346.286	5.822	187.226	185.377	24.412	23.029	75969.760	68.574
347.747	19.991	168.887	792.794	346.659	5.806	187.064	185.401	24.557	23.016	75964.464	68.114
347.948	20.056	168.893	792.437	347.240	5.815	187.254	185.453	24.658	22.991	75965.547	67.949
348.148	19.941	169.054	792.217	347.279	5.842	187.056	185.325	24.798	22.991	75959.362	68.794
348.348	20.074	169.062	791.863	346.778	5.835	187.168	185.391	24.842	22.991	75961.828	68.920
348.548	19.951	169.211	791.665	346.727	5.834	187.235	185.411	24.967	22.990	75958.990	68.871
348.748	20.034	169.167	791.613	347.976	5.829	187.795	185.773	25.087	22.991	75950.937	68.119
348.948	19.940	169.313	791.401	347.087	5.849	187.949	186.038	25.012	22.941	75952.036	69.046
349.148	20.017	169.395	792.012	346.812	5.857	187.512	185.614	24.745	22.915	75964.836	68.980
349.348	19.972	169.431	791.217	347.087	5.841	187.531	185.591	24.344	22.914	75965.693	68.816
349.548	20.027	169.419	791.074	347.273	5.852	187.472	185.714	24.598	23.015	75966.024	67.801
349.748	20.017	169.368	791.016	347.372	5.837	187.356	185.528	24.789	23.029	75970.407	67.872
349.948	20.083	169.577	791.241	347.556	5.845	187.349	185.553	24.744	23.029	75973.649	69.095
350.148	20.089	169.483	790.642	346.912	5.835	187.028	185.176	24.929	22.953	75969.816	68.004
350.350	20.049	169.604	790.981	348.172	5.823	186.538	184.725	24.610	22.952	75962.257	67.417
350.549	20.096	169.673	790.342	348.072	5.807	185.832	184.180	24.742	22.953	75965.669	67.631
350.749	20.039	169.665	790.931	347.981	5.927	181.099	178.906	24.281	22.915	75932.275	64.675
350.951	20.013	169.731	789.349	347.433	5.727	164.692	162.551	21.956	22.915	75934.305	57.574
351.150	19.997	169.614	786.372	346.938	5.273	150.068	147.945	17.956	22.914	75931.297	50.297
351.350	19.974	169.651	779.695	346.048	4.834	136.144	134.177	15.259	17.615	75425.895	47.923
351.551	20.093	169.239	771.081	345.037	4.354	122.941	120.994	13.974	17.615	75427.787	44.775
351.751	20.038	169.084	760.869	344.671	3.922	111.819	109.982	12.806	14.286	74201.132	40.053
351.951	19.995	168.821	749.871	343.147	3.596	102.977	101.253	11.910	10.045	73621.877	37.251
352.151	19.966	168.402	738.988	342.174	3.324	95.816	94.387	11.033	10.043	73617.381	33.347
352.351	20.107	167.964	727.486	340.413	3.084	89.095	87.787	10.407	10.154	70884.086	31.307
352.551	20.137	167.379	717.070	339.255	2.863	82.994	81.834	9.816	10.158	70883.431	28.982
352.752	20.107	166.786	706.650	337.888	2.680	77.416	76.273	9.216	10.156	70191.892	26.815
352.952	20.202	166.220	696.729	336.905	2.491	72.446	71.489	8.836	10.611	67725.928	26.980
353.152	20.149	165.628	686.936	336.126	2.296	68.580	67.698	8.446	10.611	67720.737	26.563
353.352	20.185	164.957	677.570	334.855	2.132	65.853	64.987	8.062	11.678	64552.707	26.300
353.552	20.240	164.250	668.803	333.453	2.052	63.281	62.492	8.025	14.963	64421.172	25.456
353.752	20.300	163.472	660.363	332.378	1.961	61.102	60.259	7.692	14.963	64422.716	24.156
353.952	20.280	162.748	653.395	332.101	1.903	59.305	58.516	7.597	13.426	61263.605	22.900
354.153	20.263	162.079	646.196	330.889	1.820	57.911	57.133	7.318	13.225	61264.025	23.624
354.352	20.378	161.375	639.660	330.569	1.776	56.291	55.557	7.080	13.225	59803.553	22.878
354.554	20.372	160.560	633.539	329.962	1.715	55.063	54.363	7.021	12.544	58423.685	22.209
354.753	20.380	159.650	628.437	329.607	1.685	53.798	53.154	6.925	12.544	58421.308	20.613
354.954	20.414	158.893	623.385	328.442	1.650	52.822	52.182	6.796	12.418	55919.259	20.487
355.154	20.503	158.153	618.536	328.560	1.611	51.976	51.314	6.729	11.370	55916.138	20.794
355.353	20.477	157.451	614.509	327.424	1.571	51.158	50.568	6.583	11.370	55756.950	20.729
355.555	20.442	156.496	611.186	327.378	1.555	50.019	49.475	6.420	11.341	53750.632	19.040
355.754	20.548	155.870	607.145	327.100	1.529	49.236	48.645	6.366	11.332	53754.319	19.714
355.954	20.505	155.040	603.825	326.530	1.509	48.432	47.919	6.225	11.331	52274.854	18.573
356.154	20.506	154.439	600.530	326.332	1.476	47.840	47.337	6.170	11.180	51892.352	18.694
356.354	20.594	153.706	598.182	325.771	1.449	47.187	46.623	6.020	11.180	51896.783	18.930
356.554	20.671	152.848	594.593	325.692	1.428	46.717	46.234	6.005	11.179	50293.852	17.932
356.756	20.620	152.114	592.554	325.472	1.418	46.308	45.841	5.985	10.915	50288.678	17.378
356.955	20.692	151.411	590.106	325.175	1.399	45.987	45.586	5.923	10.915	49920.261	17.871
357.156	20.682	150.820	588.277	325.393	1.364	45.871	45.391	5.880	11.146	48929.744	18.749
357.355	20.664	150.088	586.789	325.044	1.383	45.521	45.029	5.772	11.331	48925.240	17.669
357.555	20.802	149.387	584.866	324.615	1.387	45.101	44.647	5.725	11.332	47824.380	17.499
357.756	20.818	148.738	583.779	324.724	1.368	44.902	44.512	5.714	11.181	47800.026	17.334
357.956	20.851	147.963	582.052	324.472	1.337	44.748	44.241	5.713	11.180	47799.226	17.027
358.155	20.874	147.293	580.753	324.251	1.312	44.607	44.131	5.744	11.180	46866.625	17.394
358.356	20.796	146.700	580.273	324.041	1.325	44.435	43.971	5.679	11.407	46864.887	17.312
358.556	20.830	146.029	579.230	324.146	1.317	44.283	43.837	5.692	11.407	46439.863	17.592
358.757	20.836	145.263	577.968	323.645	1.301	44.227	43.785	5.605	11.437	46103.505	17.334
358.956	20.805	144.675	577.025	324.618	1.310	43.811	43.353	5.516	11.483	46096.722	16.654
359.157	20.904	144.028	576.127	323.839	1.290	44.111	43.607	5.640	11.483	45485.108	17.312
359.356	20.843	143.478	575.771	324.003	1.296	44.028	43.592	5.472	11.409	45480.532	17.126
359.556	20.860	142.805	575.237	324.060	1.295	43.943	43.517	5.568	11.406	45437.283	16.698
359.757	20.969	142.200	574.993	323.566	1.306	43.697	43.276	5.602	11.407	44987.493	17.126
359.956	21.023	141.580	574.381	323.645	1.297	43.846	43.481	5.551	11.446	44987.485	16.841
360.156	20.928	140.971	574.737	323.842	1.292	43.993	43.613	5.345	11.445	44663.005	16.440
360.356	21.052	140.361	574.304	323.455	1.305	43.629	43.144	5.555	11.503	44596.202	16.314
360.556	21.024	139.754	573.947	323.369	1.470	36.935	36.404	4.915	11.749	44594.148	14.702
360.756	20.993	139.344	572.907	323.069	1.392	32.698	32.075	4.416	11.748	44253.077	14.493
360.956	21.084	138.649	567.910	322.619	1.263	29.236	28.676	3.931	11.748	44253.990	12.344
361.156	20.966	138.167	562.669	321.518	1.152	26.300	25.845	3.465	2.743	43895.858	11.708
361.357	21.007	137.487	555.247	320.258	1.055	23.927	23.459	3.139	2.738	43121.184	9.942
361.557	21.071	136.942	547.627	319.111	0.977	21.909	21.467	2.798	2.737	43120.246	9.547
361.757	21.145	136.418	539.686	318.079	0.871	19.946	19.522	2.484	2.737	41221.014	9.070
361.957	21.078	135.921	533.010	317.088	0.807	18.452	18.067	2.309	-0.210	41210.260	8.659
362.158	21.093	135.188	525.057	316.158	0.751	17.011	16.665	2.072	-0.213	41206.476	6.953
362.358	21.045	134.636	517.693	315.272	0.700	15.752	15.449	1.909	-0.214	38888.882	6.964
362.558	21.112	134.169	510.383	314.183	0.649	14.592	14.330	1.755	-0.213	38890.596	6.920
362.757	21.120	133.522	503.886	312.891	0.608	13.551	13.294	1.602	-0.214	37497.986	5.440
362.957	21.107	133.074	497.343	312.113	0.564	12.662	12.411	1.483	-0.214	36418.221	6.076
363.158	21.218	132.416	490.091	310.884	0.525	11.817	11.604	1.369	-0.214	36417.671	4.996
363.359	21.236	131.918	484.503	310.092	0.488	11.078	10.854	1.243	-0.214	33959.203	5.007
363.559	21.266	131.347	478.443	309.246	0.454	10.395	10.212	1.174	-0.214	33952.403	4.129
363.759	21.149	130.925	472.257	308.560	0.436	9.782	9.616	1.080	-0.214	33672.248	4.475
363.958	21.166	130.370	466.586	307.393	0.414	9.258	9.100	0.992	-0.214	31583.644	3.910
364.158	21.182	129.771	461.496	306.815	0.400	8.759	8.598	0.927	-0.214	31581.364	3.630
364.358	21.258	129.313	455.693	305.188	0.377	8.296	8.123	0.869	-0.214	29712.710	3.268
364.560	21.265	128.942	450.516	304.282	0.360	7.847	7.681	0.818	-0.214	29361.944	4.173
364.760	21.407	128.386	446.055	303.817	0.343	7.437	7.292	0.765	-0.214	29364.354	3.498
364.959	21.389	128.016	440.811	303.299	0.330	7.020	6.901	0.710	-0.214	27304.292	4.113
365.159	21.464	127.426	436.836	302.171	0.317	6.703	6.601	0.680	-0.214	27303.055	2.934
365.359	21.358	127.032	432.092	301.223	0.294	6.383	6.274	0.631	-0.214	26685.329	2.884
365.559	21.422	126.537	427.848	300.264	0.281	6.079	5.970	0.597	-0.214	25406.951	2.298
365.759	21.567	126.070	423.413	299.327	0.272	5.820	5.702	0.561	-0.214	25409.741	2.627
365.959	21.511	125.637	418.765	299.090	0.254	5.538	5.430	0.522	-0.214	23714.069	2.802
366.160	21.545	125.097	414.543	298.344	0.245	5.278	5.191	0.494	-0.214	23684.808	2.347
366.359	21.529	124.800	410.670	297.254	0.233	5.062	4.962	0.473	-0.214	23687.023	2.572
366.559	21.487	124.399	406.836	296.224	0.226	4.857	4.748	0.447	-0.214	22125.248	2.681
366.759	21.647	123.971	403.131	295.803	0.219	4.651	4.565	0.427	-0.214	22128.029	2.374
366.959	21.582	123.618	399.834	294.732	0.210	4.472	4.371	0.401	-0.214	21335.324	2.862
367.160	21.603	123.242	396.124	294.422	0.196	4.292	4.209	0.391	-0.214	20713.184	2.489
367.360	21.658	122.724	392.826	294.312	0.194	4.122	4.042	0.363	-0.214	20711.462	1.343
367.560	21.687	122.339	389.289	293.480	0.187	3.969	3.896	0.344	-0.214	19434.224	1.206
367.760	21.728	121.990	385.648	293.023	0.180	3.815	3.747	0.331	-0.214	19432.316	1.486
367.960	21.768	121.643	382.582	291.255	0.173	3.683	3.606	0.315	-0.214	19191.763	1.256
368.160	21.809	121.411	379.711	291.240	0.170	3.573	3.489	0.298	-0.214	18279.991	2.522
368.360	21.901	120.891	376.545	290.109	0.164	3.419	3.375	0.284	-0.214	18279.733	1.864
368.561	21.938	120.554	373.898	289.584	0.157	3.292	3.241	0.272	-0.214	17425.732	1.760
368.761	21.964	120.215	370.642	288.920	0.149	3.191	3.126	0.262	-0.214	17243.743	2.095
368.961	21.969	119.935	367.916	288.433	0.147	3.075	3.014	0.257	-0.214	17243.363	2.111
369.161	21.981	119.522	364.959	287.674	0.141	2.971	2.921	0.241	-0.214	16293.767	1.409
369.361	22.012	119.238	362.026	286.870	0.136	2.866	2.810	0.228	-0.214	16296.516	2.325
369.561	22.095	118.969	359.576	285.998	0.133	2.794	2.731	0.216	-0.214	16008.226	1.979
369.761	22.115	118.563	356.783	285.673	0.128	2.697	2.646	0.210	-0.214	15433.313	1.321
369.962	22.127	118.147	354.025	284.637	0.124	2.610	2.569	0.203	-0.214	15430.572	1.042
370.162	22.151	117.883	351.442	284.002	0.122	2.522	2.487	0.198	-0.214	14654.483	2.084
370.362	22.197	117.586	349.631	283.736	0.118	2.452	2.418	0.191	-0.214	14652.017	1.809
